Start x [V]: -70.000000End x [V]: -20.000000x lines: 128Start y [V]: -67.000000End y [V]: 23.000000Input buffer: 128Input update rate [Hz]: 16.000000Direction: yWait [s]: 0.000Scan Started: 2/20/2017 3:22:34 PMScanned Stopped: 2/20/2017 3:44:38 PM0.610274	0.611884	0.618968	0.614460	0.629916	0.590954	0.606732	0.607054	0.605766	0.610274	0.607376	0.609952	0.613172	0.571312	0.605122	0.608020	0.611562	0.599326	0.606410	0.606088	0.601258	0.612528	0.617036	0.608342	0.607376	0.596428	0.607376	0.602546	0.597394	0.605766	0.614138	0.591598	0.601902	0.615426	0.610918	0.612206	0.602868	0.610274	0.611562	0.641187	0.604156	0.594496	0.623154	0.610596	0.621222	0.610596	0.600936	0.612206	0.610918	0.612850	0.602224	0.613494	0.618324	0.574532	0.579684	0.618324	0.609952	0.594818	0.615104	0.618324	0.582904	0.607054	0.594496	0.616070	0.658253	0.612206	0.606410	0.611562	0.561007	0.605122	0.604478	0.602224	0.591598	0.628306	0.611562	0.607054	0.597394	0.587734	0.607054	0.605766	0.612206	0.616392	0.601902	0.607698	0.609308	0.573888	0.590954	0.639899	0.615104	0.598360	0.620900	0.616714	0.572922	0.603512	0.604478	0.610274	0.601258	0.619934	0.614460	0.602546	0.608664	0.605766	0.598360	0.600614	0.603834	0.615748	0.610596	0.629272	0.608020	0.598360	0.619612	0.602546	0.616392	0.613172	0.598682	0.600292	0.599648	0.605444	0.570990	0.616714	0.605444	0.607376	0.605766	0.608986	0.608342	0.613172	0.602224	0.617036
0.620578	0.614782	0.625408	0.608664	0.611240	0.605444	0.608986	0.606410	0.597394	0.607376	0.611884	0.613816	0.624120	0.526553	0.607698	0.599326	0.608986	0.605444	0.595784	0.606410	0.615748	0.599648	0.612850	0.614782	0.598360	0.606410	0.608342	0.600614	0.615426	0.622832	0.611562	0.623476	0.618324	0.599326	0.619612	0.611884	0.607054	0.608664	0.621544	0.628628	0.517215	0.656643	0.618002	0.619612	0.606410	0.583548	0.608342	0.616392	0.618002	0.609630	0.600614	0.607376	0.614460	0.545873	0.567448	0.609952	0.634102	0.590954	0.589022	0.630882	0.597716	0.594496	0.593208	0.612528	0.633136	0.615748	0.594496	0.613816	0.587412	0.611884	0.601258	0.611884	0.591920	0.616392	0.618324	0.612850	0.602546	0.587412	0.622188	0.607376	0.615426	0.613816	0.604156	0.609952	0.594496	0.637967	0.593852	0.628306	0.607376	0.597072	0.608664	0.602546	0.599004	0.594496	0.599326	0.597072	0.577108	0.608020	0.609952	0.594496	0.606088	0.608020	0.602546	0.597394	0.603190	0.605122	0.631526	0.609952	0.596750	0.596106	0.621544	0.605444	0.623798	0.608020	0.599004	0.591276	0.600292	0.619934	0.587412	0.611884	0.618324	0.611884	0.609308	0.621866	0.603512	0.608020	0.608342	0.612528
0.593208	0.603512	0.603512	0.605766	0.608664	0.590954	0.595784	0.611240	0.599648	0.602868	0.610918	0.589666	0.617680	0.539433	0.599648	0.606732	0.611562	0.610918	0.605444	0.613816	0.612206	0.619612	0.607376	0.606410	0.601580	0.612850	0.616714	0.613494	0.602868	0.657931	0.611562	0.607376	0.607376	0.606088	0.601580	0.615426	0.601258	0.603512	0.615426	0.617036	0.604800	0.644729	0.619934	0.610596	0.599970	0.586768	0.609952	0.606410	0.603834	0.615104	0.604800	0.607698	0.611562	0.589988	0.561974	0.595784	0.622188	0.577108	0.602546	0.617036	0.629272	0.609308	0.611562	0.621222	0.621544	0.616714	0.603834	0.602546	0.593208	0.615748	0.614138	0.630882	0.595140	0.611240	0.621866	0.604478	0.611240	0.566482	0.599004	0.603190	0.608986	0.607376	0.597716	0.599326	0.610274	0.597716	0.608020	0.609308	0.607698	0.594818	0.609630	0.600614	0.601580	0.590632	0.601902	0.598038	0.581616	0.624120	0.613816	0.580328	0.609630	0.597394	0.610596	0.612850	0.622832	0.604800	0.613816	0.612850	0.625086	0.614460	0.596750	0.610918	0.615426	0.607698	0.620256	0.611884	0.609630	0.610274	0.583226	0.601580	0.618968	0.579040	0.593852	0.622188	0.596428	0.607376	0.606732	0.611240
0.602546	0.601258	0.601902	0.603512	0.594818	0.613494	0.600292	0.619612	0.605766	0.611240	0.613816	0.648915	0.613816	0.598038	0.604478	0.602868	0.607698	0.622832	0.605444	0.622510	0.612850	0.600936	0.619934	0.596428	0.582582	0.608986	0.597716	0.603834	0.624442	0.599970	0.598038	0.613172	0.596428	0.604156	0.605766	0.603190	0.593530	0.599004	0.603834	0.623154	0.495963	0.616392	0.635390	0.605766	0.594496	0.598682	0.606410	0.608020	0.619290	0.604800	0.612206	0.624442	0.596106	0.619290	0.589988	0.602546	0.642475	0.628628	0.596750	0.652135	0.612850	0.595784	0.621222	0.592886	0.608342	0.633780	0.599648	0.602868	0.608664	0.600936	0.612206	0.624442	0.588378	0.603190	0.612206	0.597072	0.604156	0.601580	0.599004	0.616714	0.597072	0.589666	0.604478	0.605766	0.601902	0.603190	0.611240	0.611240	0.606410	0.604800	0.610596	0.608986	0.607698	0.610274	0.604478	0.597716	0.619934	0.625086	0.599004	0.613816	0.604156	0.604800	0.625086	0.621544	0.608664	0.607054	0.585480	0.602224	0.610596	0.607376	0.608342	0.612528	0.608342	0.603512	0.608986	0.587090	0.603834	0.605122	0.602868	0.602868	0.602224	0.602546	0.604800	0.612528	0.590632	0.605766	0.601258	0.604800
0.619290	0.608020	0.617358	0.612850	0.616070	0.605766	0.613816	0.599970	0.604478	0.605766	0.614782	0.631848	0.615426	0.551669	0.605122	0.505945	0.679827	0.607376	0.596428	0.608020	0.613494	0.607698	0.593852	0.616070	0.609308	0.599326	0.598360	0.613816	0.625086	0.645051	0.581938	0.608020	0.607054	0.610596	0.616714	0.611884	0.614460	0.603834	0.618646	0.623476	0.492743	0.627984	0.634424	0.606732	0.615748	0.610274	0.610274	0.610918	0.619290	0.620256	0.626052	0.598038	0.610596	0.608020	0.576142	0.596106	0.631204	0.630882	0.606410	0.612850	0.599004	0.600614	0.606410	0.578718	0.621222	0.592886	0.593208	0.605766	0.605444	0.595462	0.622832	0.612528	0.586446	0.620578	0.611562	0.608986	0.608020	0.602546	0.620900	0.613494	0.615104	0.618968	0.612528	0.604478	0.626374	0.601258	0.613172	0.624120	0.610274	0.608020	0.618646	0.606410	0.611562	0.602868	0.607054	0.592886	0.609308	0.610918	0.608664	0.586124	0.593530	0.606732	0.600292	0.607698	0.609630	0.605122	0.575820	0.611884	0.603512	0.597394	0.606410	0.592242	0.617036	0.601902	0.607054	0.594496	0.608986	0.609630	0.626052	0.602546	0.618968	0.621544	0.603512	0.614460	0.577108	0.602868	0.613816	0.606410
0.601580	0.599970	0.601580	0.603190	0.608020	0.604478	0.610274	0.608342	0.594174	0.608020	0.596106	0.617358	0.606732	0.537179	0.595784	0.600936	0.614460	0.629272	0.593852	0.612206	0.608986	0.601902	0.602868	0.600936	0.606088	0.607698	0.599004	0.617680	0.622510	0.584836	0.607376	0.618324	0.600936	0.615748	0.607054	0.604156	0.619290	0.604800	0.598360	0.632170	0.521723	0.610918	0.641831	0.606732	0.608342	0.602224	0.595784	0.617680	0.607698	0.605766	0.612850	0.599004	0.583548	0.609952	0.575820	0.603190	0.642475	0.570990	0.604800	0.608664	0.603512	0.618002	0.608342	0.603512	0.621222	0.611240	0.592886	0.618324	0.617036	0.600292	0.618968	0.607698	0.604478	0.609308	0.613172	0.621544	0.599326	0.604800	0.594496	0.612528	0.599004	0.611562	0.603512	0.594174	0.628306	0.593530	0.601580	0.621866	0.631526	0.589666	0.612206	0.592242	0.599004	0.597072	0.594496	0.591598	0.616070	0.622188	0.610596	0.607698	0.587734	0.609308	0.600292	0.610274	0.592886	0.607698	0.584836	0.611884	0.621866	0.616070	0.610274	0.614782	0.605766	0.603512	0.600936	0.622832	0.617680	0.610918	0.629916	0.597716	0.610596	0.615104	0.605122	0.594818	0.605122	0.608986	0.594818	0.599326
0.612528	0.606088	0.620256	0.609952	0.606410	0.611562	0.617358	0.610274	0.602546	0.603190	0.608342	0.616714	0.618646	0.541687	0.608986	0.602224	0.607698	0.613494	0.602224	0.603834	0.595140	0.602546	0.605444	0.599970	0.606088	0.599648	0.606410	0.606410	0.622510	0.588700	0.605766	0.603190	0.602868	0.613172	0.597394	0.600292	0.615748	0.604156	0.607054	0.637967	0.543297	0.619934	0.689809	0.600614	0.608342	0.605766	0.601258	0.612850	0.607376	0.642153	0.623154	0.607054	0.604478	0.607376	0.338503	0.593852	0.761616	0.642797	0.600292	0.609952	0.612850	0.599004	0.608986	0.608342	0.604800	0.594174	0.587734	0.611240	0.607054	0.587412	0.614138	0.604800	0.597394	0.601580	0.614460	0.608986	0.601580	0.611240	0.592242	0.615748	0.603834	0.614460	0.610596	0.605444	0.627984	0.598682	0.616714	0.619612	0.670811	0.587412	0.611240	0.614138	0.599326	0.627984	0.597072	0.601258	0.622188	0.618646	0.597394	0.606088	0.590954	0.602224	0.607054	0.601580	0.618324	0.605122	0.616070	0.608020	0.600614	0.608342	0.601258	0.599326	0.593208	0.614460	0.603834	0.612850	0.598682	0.604156	0.619612	0.600292	0.597394	0.623476	0.603512	0.609952	0.604800	0.595784	0.603190	0.612528
0.614460	0.614460	0.616070	0.618324	0.604478	0.609952	0.611240	0.607376	0.600936	0.609952	0.603190	0.612206	0.603190	0.619612	0.623476	0.597716	0.602546	0.631204	0.608342	0.586768	0.602868	0.606732	0.599004	0.589666	0.601902	0.608020	0.604800	0.603512	0.599970	0.593530	0.611240	0.609630	0.613816	0.612206	0.617680	0.617680	0.621222	0.600292	0.611884	0.628950	0.618968	0.611562	0.618646	0.616714	0.582260	0.616070	0.600292	0.608020	0.604156	0.627340	0.619612	0.610918	0.606732	0.609952	0.594496	0.608020	0.619612	0.618968	0.598360	0.604478	0.613494	0.592886	0.608020	0.608664	0.602868	0.589344	0.597716	0.611884	0.608020	0.599004	0.615426	0.630560	0.620900	0.589666	0.608664	0.618002	0.595140	0.618324	0.613172	0.613172	0.633136	0.594496	0.612528	0.599648	0.618002	0.590632	0.613494	0.616392	0.646983	0.601580	0.583548	0.617358	0.568736	0.607698	0.603834	0.600936	0.602546	0.596428	0.596106	0.601580	0.614138	0.601580	0.595462	0.612206	0.608342	0.596428	0.621222	0.600292	0.605122	0.623476	0.599970	0.613172	0.603512	0.601258	0.604478	0.602546	0.602868	0.619612	0.610596	0.621866	0.613816	0.618646	0.592886	0.612528	0.613816	0.589666	0.612528	0.609308
0.595784	0.607376	0.610596	0.607376	0.566160	0.693673	0.618968	0.592564	0.590632	0.612528	0.614138	0.609308	0.625408	0.616714	0.597394	0.616392	0.608342	0.618324	0.604478	0.606732	0.626374	0.617036	0.620256	0.616392	0.621544	0.608020	0.605444	0.599970	0.607376	0.593530	0.603834	0.595784	0.602546	0.608342	0.605766	0.609308	0.627018	0.590310	0.613172	0.606410	0.607376	0.598682	0.616070	0.611884	0.579684	0.598682	0.608664	0.605766	0.604156	0.626696	0.615748	0.602224	0.631848	0.600614	0.596106	0.615748	0.629594	0.623798	0.607054	0.617358	0.618002	0.590310	0.603512	0.615426	0.605122	0.598038	0.610918	0.602224	0.614138	0.617358	0.604800	0.612206	0.614138	0.585802	0.606732	0.608664	0.583548	0.615426	0.607376	0.579040	0.630882	0.574854	0.598360	0.611240	0.621544	0.585158	0.612206	0.610918	0.638288	0.593208	0.574532	0.618002	0.606088	0.614138	0.601580	0.613172	0.614138	0.597394	0.598038	0.617358	0.608664	0.568414	0.615104	0.573244	0.615104	0.618002	0.620256	0.589988	0.579362	0.685301	0.598360	0.609952	0.597394	0.613172	0.610918	0.592564	0.598038	0.576142	0.657287	0.617358	0.594818	0.608986	0.613494	0.602546	0.610274	0.593530	0.593208	0.592242
0.617358	0.611240	0.612850	0.572278	0.629916	0.617036	0.609308	0.641509	0.589666	0.597394	0.599326	0.614782	0.614460	0.618002	0.564228	0.604156	0.598682	0.619934	0.595784	0.601902	0.609630	0.608020	0.603512	0.600936	0.561007	0.600614	0.606088	0.600936	0.602224	0.601580	0.613816	0.606410	0.609630	0.608020	0.608342	0.612850	0.627984	0.613172	0.609952	0.593208	0.618646	0.618646	0.607698	0.615748	0.579040	0.611240	0.611562	0.601580	0.615104	0.620578	0.616714	0.612850	0.604478	0.607054	0.428020	0.656643	0.724586	0.647627	0.599970	0.607054	0.610274	0.562618	0.603834	0.608986	0.607698	0.600292	0.608986	0.594496	0.608986	0.599004	0.585480	0.617680	0.601580	0.590632	0.611562	0.614138	0.589022	0.632170	0.605122	0.613816	0.617680	0.582582	0.618646	0.610596	0.601902	0.576464	0.606732	0.613172	0.663727	0.646661	0.605766	0.615104	0.596106	0.599970	0.593208	0.596750	0.603190	0.589022	0.593530	0.614782	0.598682	0.598682	0.589666	0.605766	0.600936	0.601902	0.600614	0.596106	0.613816	0.618646	0.602868	0.611240	0.608020	0.614138	0.603190	0.601902	0.612528	0.618968	0.604800	0.577108	0.601580	0.613494	0.606088	0.609308	0.604156	0.599648	0.596750	0.608342
0.605122	0.604156	0.599004	0.608986	0.599648	0.608342	0.616392	0.611562	0.604478	0.604156	0.601258	0.605122	0.609308	0.621222	0.556821	0.630238	0.591598	0.644085	0.608342	0.604156	0.610596	0.610918	0.605122	0.541687	0.667913	0.615104	0.552313	0.611240	0.608664	0.598038	0.609952	0.604156	0.602224	0.594496	0.602546	0.603190	0.620256	0.602224	0.605122	0.629916	0.607698	0.613494	0.595784	0.615748	0.569058	0.603190	0.600292	0.608342	0.609952	0.614138	0.644729	0.604478	0.602546	0.624120	0.614782	0.613494	0.627340	0.620256	0.613816	0.614782	0.614138	0.608664	0.609952	0.611562	0.610596	0.599326	0.608986	0.611884	0.535891	0.668879	0.600936	0.606732	0.595140	0.597072	0.592242	0.608020	0.603512	0.597394	0.610274	0.541043	0.642153	0.599970	0.583548	0.606088	0.613172	0.572922	0.592564	0.611240	0.540077	0.725874	0.614782	0.595140	0.601580	0.606088	0.611240	0.626696	0.600292	0.594174	0.604478	0.611240	0.599648	0.614460	0.585802	0.610918	0.611240	0.591598	0.605766	0.596428	0.603512	0.611884	0.575176	0.613172	0.609630	0.599970	0.597716	0.599004	0.591276	0.600936	0.601902	0.596428	0.606410	0.618968	0.598038	0.595140	0.605444	0.591276	0.598038	0.598038
0.618324	0.595784	0.608342	0.581938	0.602224	0.623476	0.616714	0.608342	0.615426	0.599970	0.601902	0.609952	0.602224	0.604156	0.589344	0.607698	0.613494	0.616070	0.597394	0.605444	0.603834	0.591920	0.605122	0.597394	0.611240	0.608020	0.608020	0.594818	0.609952	0.596750	0.599004	0.608986	0.607054	0.605444	0.606410	0.606410	0.625086	0.615426	0.611240	0.626052	0.622188	0.607698	0.624442	0.637001	0.592886	0.591920	0.629272	0.601258	0.606732	0.622832	0.618002	0.614782	0.603190	0.614138	0.602868	0.607376	0.638288	0.601902	0.597072	0.610918	0.619934	0.610918	0.598360	0.606732	0.602546	0.611884	0.620578	0.592886	0.627340	0.595462	0.609308	0.611562	0.603512	0.607376	0.613172	0.593852	0.612528	0.611562	0.609630	0.616392	0.603834	0.601258	0.589344	0.580006	0.624442	0.605122	0.605444	0.613816	0.640865	0.616392	0.622510	0.617680	0.591276	0.601258	0.600936	0.604156	0.601580	0.593852	0.598360	0.619290	0.613172	0.591920	0.604478	0.592242	0.600936	0.605766	0.601902	0.609952	0.592242	0.607698	0.610596	0.615104	0.606410	0.604156	0.611562	0.608020	0.609308	0.599004	0.614782	0.608664	0.618646	0.613494	0.625730	0.608342	0.607054	0.616392	0.573888	0.604800
0.604800	0.607376	0.589666	0.583870	0.600614	0.611562	0.611884	0.597394	0.610596	0.608986	0.602868	0.613172	0.607698	0.617358	0.608664	0.614460	0.607376	0.635390	0.609952	0.600292	0.616070	0.616070	0.608986	0.606732	0.614782	0.615426	0.614460	0.608664	0.610596	0.593530	0.592242	0.605766	0.605444	0.595462	0.610596	0.610274	0.605766	0.605122	0.601580	0.617036	0.605444	0.605444	0.605122	0.614460	0.487591	0.618646	0.610918	0.647627	0.605122	0.623154	0.623154	0.614460	0.603834	0.613816	0.583870	0.614782	0.628950	0.608664	0.610918	0.615748	0.625086	0.623154	0.608986	0.616392	0.612850	0.606732	0.619612	0.599648	0.627340	0.606088	0.591276	0.612850	0.613172	0.606410	0.605122	0.585802	0.608986	0.595462	0.603512	0.601580	0.605444	0.599004	0.576786	0.604800	0.602546	0.610918	0.602546	0.598360	0.623798	0.603190	0.600292	0.618968	0.590310	0.601580	0.613816	0.614138	0.599970	0.615104	0.602224	0.612528	0.613816	0.602546	0.607698	0.610596	0.616392	0.613172	0.586768	0.604478	0.610596	0.612206	0.610596	0.616070	0.591920	0.606410	0.606410	0.600936	0.598038	0.607054	0.597716	0.589988	0.609630	0.601902	0.622188	0.595784	0.599004	0.615104	0.590954	0.594496
0.610918	0.612528	0.594174	0.573244	0.603190	0.612528	0.598682	0.613816	0.606088	0.603190	0.606410	0.601580	0.596106	0.608664	0.604156	0.609308	0.598682	0.603834	0.607054	0.607698	0.594818	0.610918	0.605444	0.602546	0.609630	0.610596	0.613816	0.621866	0.622832	0.595462	0.607054	0.612206	0.606088	0.609630	0.606088	0.611884	0.587412	0.603512	0.620256	0.634424	0.603512	0.606732	0.612206	0.605444	0.515927	0.597716	0.635068	0.616714	0.669201	0.628628	0.607376	0.603512	0.605766	0.599004	0.579684	0.599648	0.637001	0.601580	0.606732	0.611884	0.603190	0.617680	0.596428	0.607376	0.605766	0.628950	0.599970	0.600292	0.611884	0.613494	0.617680	0.614460	0.608664	0.622188	0.608020	0.595140	0.611240	0.615104	0.607376	0.627984	0.606410	0.609952	0.598038	0.596428	0.610274	0.613172	0.582904	0.614782	0.621544	0.596750	0.599004	0.601580	0.570346	0.608986	0.598682	0.606088	0.584192	0.593530	0.602224	0.594818	0.593208	0.616392	0.613494	0.594174	0.608664	0.613172	0.583870	0.619612	0.601580	0.614138	0.615748	0.596428	0.594818	0.640221	0.607698	0.610918	0.617680	0.614138	0.614138	0.601258	0.603190	0.617036	0.610274	0.593852	0.610918	0.607698	0.614460	0.606732
0.605444	0.614138	0.596106	0.590310	0.598038	0.608986	0.613816	0.601258	0.608986	0.601580	0.601902	0.606732	0.598038	0.599970	0.610596	0.524621	0.709129	0.599970	0.603834	0.589666	0.595784	0.608020	0.599970	0.614460	0.599970	0.597716	0.615104	0.610596	0.612206	0.611240	0.601580	0.612850	0.619290	0.607054	0.614138	0.617036	0.616714	0.616714	0.612528	0.620256	0.611884	0.609952	0.606410	0.624442	0.516249	0.589022	0.610274	0.607054	0.674675	0.573244	0.592242	0.631848	0.607698	0.598038	0.593208	0.630882	0.595784	0.603190	0.599970	0.595140	0.613172	0.540721	0.634746	0.587090	0.539433	0.730704	0.592886	0.580328	0.595462	0.643763	0.598038	0.626374	0.614460	0.615748	0.624120	0.594496	0.613494	0.612850	0.612850	0.616714	0.610596	0.611240	0.591598	0.601902	0.606732	0.611562	0.602868	0.604156	0.616070	0.607376	0.619934	0.618002	0.594174	0.592564	0.601258	0.603190	0.568414	0.595784	0.604478	0.599648	0.605444	0.583226	0.627984	0.594818	0.604800	0.606088	0.595462	0.602546	0.613172	0.616070	0.607698	0.604156	0.595784	0.599648	0.615104	0.604800	0.616714	0.612850	0.612528	0.610596	0.608020	0.608342	0.618324	0.610274	0.595462	0.610918	0.612528	0.591276
0.610918	0.615104	0.617036	0.611240	0.610596	0.600936	0.617358	0.597394	0.608342	0.613172	0.655355	0.598682	0.609952	0.601258	0.606410	0.604800	0.612206	0.594174	0.607054	0.605122	0.610918	0.603834	0.605766	0.624764	0.603512	0.601258	0.599648	0.606732	0.604800	0.605444	0.607054	0.608986	0.609630	0.608986	0.619290	0.612528	0.607054	0.613494	0.625086	0.607054	0.614782	0.614138	0.611562	0.628306	0.518181	0.584514	0.619934	0.606410	0.663083	0.614460	0.615426	0.610274	0.611884	0.595462	0.611240	0.604800	0.580650	0.592242	0.614460	0.608020	0.608664	0.599970	0.585480	0.600614	0.601258	0.620256	0.602546	0.603834	0.604156	0.611562	0.605122	0.635713	0.606410	0.603190	0.621866	0.598682	0.596428	0.608020	0.628306	0.625408	0.623154	0.609308	0.602868	0.609952	0.606410	0.621544	0.615426	0.613816	0.624120	0.610596	0.606732	0.627662	0.583226	0.597394	0.597072	0.596106	0.589344	0.600936	0.603190	0.599970	0.617680	0.605444	0.607376	0.592242	0.609952	0.600614	0.584192	0.594174	0.613816	0.606088	0.607376	0.605766	0.624764	0.612850	0.612850	0.594496	0.626052	0.603512	0.604800	0.618002	0.611562	0.606732	0.629272	0.613494	0.599648	0.629916	0.619290	0.590954
0.568414	0.683047	0.604478	0.604478	0.610274	0.603834	0.622510	0.619290	0.612528	0.613816	0.632170	0.598038	0.610274	0.607376	0.614782	0.592242	0.617680	0.613172	0.635390	0.602868	0.599970	0.600614	0.580006	0.599970	0.603512	0.605122	0.605122	0.596428	0.618968	0.599004	0.614782	0.586768	0.612528	0.596428	0.606410	0.587412	0.608664	0.604478	0.628628	0.613494	0.623798	0.601902	0.605444	0.611884	0.557787	0.573566	0.613494	0.601258	0.677573	0.606410	0.623476	0.595462	0.604156	0.605766	0.613816	0.604478	0.608664	0.618646	0.614138	0.623476	0.608664	0.604156	0.591920	0.591276	0.611884	0.616714	0.608986	0.589988	0.609308	0.630882	0.602224	0.611562	0.598682	0.605444	0.606088	0.610274	0.596428	0.608342	0.615104	0.603190	0.622510	0.622188	0.605444	0.596428	0.588378	0.611884	0.613816	0.605122	0.614138	0.625408	0.622188	0.625086	0.583870	0.602224	0.616070	0.611562	0.586124	0.597716	0.602546	0.601580	0.611884	0.611884	0.606088	0.617036	0.618002	0.599326	0.606732	0.596750	0.597716	0.596428	0.609952	0.614460	0.625086	0.602224	0.606410	0.608342	0.597072	0.599970	0.593852	0.611240	0.608342	0.605122	0.618646	0.584836	0.603834	0.614460	0.606732	0.578396
0.610274	0.604800	0.588056	0.612850	0.601258	0.605766	0.608020	0.596106	0.601902	0.601258	0.609630	0.580972	0.601902	0.605444	0.611562	0.610274	0.607376	0.602868	0.590632	0.607698	0.601580	0.617036	0.597072	0.598360	0.609630	0.619290	0.609630	0.601902	0.622832	0.617680	0.605766	0.615426	0.605122	0.609308	0.612206	0.610918	0.601580	0.601580	0.602546	0.625086	0.644729	0.595140	0.603190	0.590954	0.603512	0.586768	0.597394	0.629594	0.681759	0.615426	0.597716	0.597716	0.601258	0.601580	0.604478	0.596428	0.583548	0.616070	0.615104	0.642475	0.611240	0.609952	0.605766	0.611562	0.608020	0.601902	0.616714	0.595462	0.617036	0.603512	0.611884	0.637322	0.614460	0.609308	0.613816	0.604800	0.611240	0.609630	0.617036	0.601902	0.617358	0.607376	0.558109	0.580650	0.599004	0.607054	0.620578	0.586446	0.606088	0.599326	0.596428	0.620900	0.569380	0.608020	0.606732	0.599004	0.604478	0.597716	0.580328	0.602868	0.598360	0.608986	0.618002	0.621222	0.606410	0.601258	0.609630	0.606088	0.607698	0.596106	0.606410	0.617358	0.617036	0.600936	0.627018	0.607376	0.608664	0.608664	0.607054	0.603512	0.605444	0.605122	0.613494	0.592886	0.592564	0.609952	0.613494	0.622188
0.605122	0.625408	0.621866	0.615426	0.601902	0.598360	0.614782	0.603834	0.599648	0.612206	0.612850	0.581616	0.608342	0.608664	0.599970	0.621544	0.587734	0.606410	0.603512	0.598038	0.599326	0.606410	0.618002	0.585802	0.601580	0.596750	0.609952	0.589988	0.599648	0.626696	0.615748	0.606732	0.599326	0.607376	0.609630	0.604478	0.604478	0.613494	0.620578	0.615104	0.644729	0.606410	0.618324	0.575820	0.622188	0.601580	0.603834	0.605766	0.676607	0.614460	0.608342	0.608986	0.613494	0.607376	0.611240	0.599970	0.578718	0.603190	0.600936	0.619934	0.606088	0.605766	0.604800	0.607376	0.600614	0.602868	0.620900	0.585480	0.604156	0.553279	0.616392	0.609952	0.605122	0.602868	0.624442	0.615748	0.611562	0.611884	0.606088	0.608664	0.618968	0.594818	0.614138	0.613494	0.619290	0.609952	0.631204	0.597072	0.612850	0.618968	0.623798	0.616070	0.551991	0.601580	0.598360	0.596750	0.605444	0.607698	0.601902	0.603834	0.600292	0.599970	0.593208	0.583548	0.599648	0.611884	0.604800	0.598682	0.604800	0.605122	0.598360	0.596106	0.608342	0.452492	0.674675	0.624120	0.601580	0.624764	0.604800	0.619612	0.605122	0.601580	0.608986	0.614138	0.591920	0.617358	0.613172	0.605444
0.604156	0.599004	0.602868	0.602868	0.609630	0.611562	0.599326	0.612206	0.600614	0.605766	0.627662	0.599648	0.602868	0.616070	0.598038	0.627018	0.609308	0.629272	0.627018	0.616392	0.602868	0.606410	0.617358	0.602546	0.608020	0.609308	0.616070	0.602868	0.609630	0.605766	0.612850	0.493065	0.694639	0.599004	0.613172	0.620578	0.591920	0.603190	0.600936	0.614460	0.616070	0.591276	0.606088	0.591276	0.601902	0.631204	0.593852	0.602546	0.673709	0.596428	0.603834	0.615748	0.603512	0.603834	0.602868	0.607376	0.572600	0.598360	0.606732	0.642797	0.616392	0.611562	0.616392	0.617036	0.603834	0.613816	0.605444	0.592564	0.615104	0.601902	0.606410	0.623154	0.601258	0.603190	0.627340	0.589344	0.615104	0.585480	0.594818	0.606732	0.576142	0.600292	0.612528	0.606088	0.606410	0.611240	0.629594	0.588700	0.605122	0.613816	0.620256	0.613816	0.618002	0.606732	0.607054	0.606732	0.616070	0.601580	0.609952	0.608986	0.613172	0.610274	0.624120	0.605122	0.602224	0.617680	0.616392	0.608664	0.607376	0.602868	0.609630	0.605122	0.613494	0.609952	0.602224	0.614782	0.610596	0.608020	0.597716	0.600614	0.590310	0.602224	0.604800	0.624442	0.594818	0.603190	0.611240	0.608342
0.600292	0.612206	0.599326	0.610918	0.610274	0.601902	0.594174	0.608342	0.585480	0.598360	0.618002	0.608986	0.604156	0.607698	0.601902	0.619612	0.615104	0.617680	0.617680	0.608664	0.597394	0.618324	0.612528	0.607698	0.614460	0.617680	0.616714	0.603834	0.592242	0.609308	0.613816	0.610274	0.601902	0.613172	0.610596	0.607054	0.594496	0.597716	0.613172	0.615426	0.619934	0.608986	0.603512	0.600936	0.667913	0.533637	0.583870	0.630238	0.658253	0.608986	0.599970	0.616714	0.604156	0.610918	0.619934	0.613172	0.591920	0.601580	0.617680	0.620256	0.611562	0.617036	0.613172	0.619934	0.607376	0.612850	0.608342	0.600292	0.600292	0.606088	0.617680	0.625086	0.604156	0.610918	0.618002	0.601902	0.612206	0.577430	0.603834	0.612206	0.571956	0.601258	0.617036	0.589344	0.615104	0.597716	0.608664	0.589988	0.603190	0.620256	0.608664	0.590310	0.602224	0.610918	0.601258	0.602546	0.574532	0.598038	0.600614	0.607054	0.605766	0.623476	0.618646	0.600936	0.618646	0.616714	0.604478	0.613816	0.610274	0.605444	0.620256	0.608342	0.609630	0.611884	0.608986	0.612206	0.602224	0.593208	0.599648	0.620578	0.574532	0.612206	0.611562	0.602546	0.599004	0.591598	0.598360	0.601580
0.610274	0.605766	0.611240	0.618646	0.616070	0.611884	0.610596	0.605444	0.621866	0.603190	0.624442	0.613494	0.616070	0.611562	0.618968	0.606410	0.611562	0.608664	0.603512	0.598038	0.597716	0.601258	0.613816	0.599648	0.604800	0.599648	0.610596	0.599004	0.592886	0.602868	0.600936	0.597716	0.611240	0.614138	0.610596	0.603834	0.613172	0.613494	0.611562	0.605766	0.612850	0.617680	0.610596	0.599004	0.655355	0.614138	0.615426	0.603190	0.652779	0.638933	0.607698	0.604156	0.613816	0.616714	0.599326	0.609952	0.590310	0.598038	0.614138	0.621222	0.609308	0.623476	0.604156	0.600292	0.599004	0.600614	0.600614	0.602224	0.608342	0.607054	0.603190	0.610918	0.601902	0.599326	0.608986	0.605122	0.612206	0.580650	0.618002	0.601580	0.565194	0.594496	0.617358	0.612850	0.635713	0.610274	0.629916	0.583548	0.600936	0.613494	0.614782	0.598038	0.598682	0.605122	0.604156	0.620900	0.587412	0.614782	0.609952	0.606410	0.605122	0.598682	0.612528	0.589022	0.608986	0.605444	0.604478	0.603512	0.599648	0.609952	0.603834	0.598038	0.599648	0.598038	0.603190	0.605122	0.596106	0.590310	0.621222	0.604478	0.583226	0.621222	0.614782	0.610918	0.598038	0.605122	0.620900	0.608664
0.603512	0.609630	0.607698	0.617680	0.604800	0.617680	0.597394	0.598038	0.614138	0.596750	0.608020	0.616714	0.615426	0.619934	0.620256	0.608664	0.614138	0.611884	0.611884	0.606088	0.600292	0.609952	0.613494	0.630238	0.613172	0.614460	0.607698	0.596750	0.593530	0.600292	0.603512	0.599970	0.600936	0.620256	0.603190	0.599326	0.598038	0.601580	0.597716	0.623798	0.599326	0.604478	0.614460	0.554567	0.590310	0.744550	0.592564	0.638933	0.602224	0.607698	0.604478	0.605766	0.609952	0.617680	0.618002	0.616070	0.601580	0.599004	0.621544	0.636034	0.614782	0.620900	0.592886	0.620900	0.600614	0.611884	0.603190	0.603190	0.600936	0.602546	0.617680	0.609308	0.597394	0.595462	0.599326	0.611884	0.600292	0.611240	0.593208	0.593208	0.579362	0.612206	0.593852	0.605444	0.618002	0.593530	0.609630	0.633780	0.596750	0.605122	0.614460	0.600614	0.616714	0.615104	0.614460	0.603834	0.581294	0.612528	0.613816	0.613494	0.616070	0.607698	0.614782	0.604478	0.613172	0.613816	0.599326	0.595462	0.600614	0.607054	0.621866	0.601580	0.601580	0.602546	0.597072	0.595784	0.620256	0.582260	0.608020	0.608664	0.595140	0.610918	0.607376	0.600936	0.606088	0.590954	0.596428	0.603512
0.609308	0.612206	0.602868	0.608664	0.617680	0.614782	0.591598	0.606410	0.606410	0.588378	0.601258	0.604156	0.609630	0.598682	0.589988	0.606088	0.564228	0.610274	0.618646	0.575498	0.604478	0.610274	0.609952	0.618324	0.604800	0.608020	0.611240	0.611240	0.600936	0.613172	0.609952	0.623798	0.623798	0.617358	0.606732	0.612206	0.623154	0.617036	0.607054	0.607054	0.599326	0.618646	0.622510	0.593208	0.605122	0.578718	0.612528	0.592886	0.599648	0.614138	0.607698	0.603190	0.598038	0.640865	0.602868	0.589344	0.585802	0.568092	0.601580	0.643441	0.611884	0.619290	0.615104	0.618968	0.603512	0.538145	0.704621	0.594496	0.601902	0.621866	0.629272	0.602868	0.616714	0.605444	0.609630	0.623154	0.602868	0.609630	0.609630	0.590632	0.600936	0.598682	0.603834	0.606410	0.614138	0.586124	0.606732	0.611884	0.583870	0.599970	0.609630	0.591276	0.602546	0.596428	0.601580	0.603834	0.599648	0.605444	0.606088	0.608664	0.617036	0.598682	0.602224	0.609308	0.617036	0.594496	0.598682	0.624442	0.607054	0.618324	0.606410	0.599970	0.601258	0.612528	0.617036	0.597072	0.614138	0.597394	0.629916	0.593530	0.611240	0.566804	0.605122	0.620900	0.584514	0.607698	0.597716	0.605444
0.599648	0.608342	0.603190	0.608342	0.611240	0.621222	0.594174	0.615748	0.612206	0.608986	0.613172	0.613816	0.610596	0.612206	0.606732	0.601902	0.609308	0.601580	0.618324	0.590632	0.599970	0.603512	0.616070	0.612850	0.598038	0.593852	0.594174	0.597394	0.599648	0.595784	0.605122	0.613172	0.586446	0.616392	0.607376	0.601258	0.611562	0.596750	0.603512	0.622510	0.583548	0.620256	0.609952	0.589666	0.612528	0.602224	0.585158	0.620900	0.607376	0.618646	0.599648	0.611562	0.624120	0.595140	0.614782	0.608342	0.594818	0.608020	0.628628	0.627018	0.589022	0.617358	0.542653	0.604156	0.605122	0.611884	0.599970	0.613816	0.601580	0.599648	0.594818	0.592242	0.606732	0.599970	0.587412	0.622188	0.595784	0.613172	0.616070	0.610596	0.589022	0.583548	0.606088	0.586768	0.618968	0.596106	0.623154	0.650847	0.600936	0.612528	0.616714	0.622188	0.589666	0.591920	0.600292	0.606088	0.600292	0.607376	0.626052	0.613172	0.614782	0.606732	0.612528	0.614782	0.600614	0.589666	0.604478	0.614460	0.598360	0.604800	0.616714	0.608020	0.531383	0.655677	0.604800	0.583548	0.623798	0.602224	0.615104	0.608986	0.608986	0.611240	0.586124	0.604156	0.596106	0.628306	0.605766	0.615426
0.604800	0.611562	0.601580	0.607054	0.594174	0.593530	0.607698	0.591276	0.597716	0.599004	0.611884	0.615104	0.608020	0.582582	0.596750	0.597072	0.596428	0.603190	0.612850	0.601902	0.620256	0.597394	0.602546	0.631848	0.592564	0.595784	0.612528	0.600614	0.602546	0.606088	0.613816	0.611884	0.605122	0.615426	0.627018	0.610274	0.621866	0.607698	0.615104	0.612850	0.599326	0.609630	0.610918	0.590632	0.605444	0.630882	0.584192	0.603512	0.598360	0.602868	0.589666	0.605444	0.610918	0.589022	0.612850	0.604800	0.575498	0.617358	0.606410	0.617358	0.605122	0.610918	0.604478	0.597394	0.616392	0.618968	0.605444	0.605444	0.614138	0.618002	0.605766	0.608664	0.606088	0.603190	0.603512	0.621544	0.609630	0.618646	0.616392	0.617036	0.602868	0.596106	0.606410	0.614138	0.603834	0.593530	0.607698	0.619612	0.606088	0.609630	0.609630	0.611562	0.593530	0.599326	0.602224	0.583226	0.591276	0.616714	0.603190	0.598682	0.610596	0.611240	0.617680	0.619612	0.608986	0.606732	0.613494	0.616392	0.601258	0.615426	0.602224	0.617036	0.615748	0.608986	0.626374	0.602868	0.615748	0.600614	0.602868	0.616714	0.608020	0.595462	0.608664	0.616070	0.592886	0.605766	0.599648	0.593530
0.581938	0.686589	0.611884	0.606088	0.610274	0.613816	0.617680	0.601258	0.601258	0.600614	0.608020	0.609952	0.616070	0.599004	0.603190	0.563906	0.610596	0.612850	0.620578	0.599970	0.609630	0.610274	0.598360	0.622832	0.583226	0.597072	0.612206	0.615426	0.608342	0.600936	0.609308	0.624120	0.599970	0.594174	0.608342	0.614460	0.643763	0.572278	0.614460	0.625730	0.625730	0.609952	0.599004	0.573566	0.606410	0.680793	0.601258	0.611240	0.609630	0.605122	0.593530	0.595462	0.609630	0.599648	0.610596	0.611884	0.591276	0.598038	0.607698	0.609308	0.604800	0.612528	0.607698	0.589666	0.612528	0.611240	0.615426	0.598682	0.607054	0.611884	0.605122	0.620256	0.609630	0.606732	0.606410	0.629594	0.604478	0.608986	0.614138	0.606410	0.620900	0.609308	0.605122	0.617036	0.613816	0.597716	0.591920	0.602546	0.602868	0.598360	0.603834	0.611884	0.605122	0.597072	0.607376	0.583548	0.589666	0.613494	0.597072	0.604156	0.605122	0.597394	0.612528	0.619290	0.597394	0.596428	0.613172	0.604800	0.615104	0.610274	0.611884	0.606088	0.604800	0.614138	0.612206	0.614782	0.618968	0.602868	0.603512	0.615426	0.609308	0.597716	0.601580	0.603512	0.602224	0.618002	0.604800	0.600292
0.615426	0.603834	0.611240	0.608342	0.603512	0.614782	0.605122	0.612850	0.588378	0.610274	0.614138	0.612850	0.614460	0.611562	0.603512	0.598682	0.610918	0.617680	0.625730	0.595140	0.627018	0.579040	0.604156	0.606088	0.605444	0.578074	0.600936	0.615426	0.613172	0.611240	0.597716	0.619934	0.599970	0.588378	0.598360	0.613172	0.605444	0.572278	0.618002	0.617358	0.631526	0.599004	0.605122	0.582904	0.545551	0.669845	0.609308	0.606732	0.624120	0.628628	0.614782	0.608664	0.620578	0.618646	0.613172	0.609630	0.612528	0.606088	0.602868	0.616392	0.608020	0.613816	0.605122	0.585480	0.605122	0.625408	0.615104	0.582904	0.604156	0.604800	0.599970	0.606410	0.600936	0.602224	0.616392	0.607698	0.602224	0.621544	0.609308	0.605444	0.608986	0.581938	0.603190	0.612206	0.612206	0.609308	0.460864	0.681437	0.618002	0.602224	0.624764	0.611562	0.623476	0.595140	0.613816	0.593852	0.596106	0.629916	0.621222	0.602868	0.607054	0.616392	0.611240	0.604800	0.576142	0.606732	0.596428	0.592242	0.615104	0.607698	0.599648	0.605444	0.600292	0.607054	0.598682	0.607376	0.597716	0.610596	0.596750	0.612206	0.620900	0.599648	0.609630	0.606088	0.606732	0.603834	0.609308	0.598682
0.608020	0.609952	0.612528	0.613494	0.621222	0.631204	0.607698	0.613172	0.599326	0.608020	0.609952	0.602224	0.619612	0.619612	0.605122	0.609308	0.611240	0.601902	0.626374	0.590954	0.599326	0.602224	0.598038	0.611884	0.616392	0.584514	0.592886	0.603834	0.597394	0.603190	0.606410	0.599004	0.595140	0.603190	0.599326	0.599004	0.610274	0.615426	0.617036	0.626374	0.625730	0.611240	0.618324	0.667591	0.611562	0.603512	0.610274	0.618002	0.615748	0.637001	0.614460	0.600936	0.614138	0.605766	0.602546	0.609630	0.611884	0.593530	0.613172	0.622832	0.596428	0.613172	0.589344	0.524299	0.606732	0.608986	0.605444	0.605444	0.602868	0.596750	0.611240	0.600936	0.604800	0.614138	0.599004	0.612528	0.611884	0.597716	0.610918	0.615104	0.615104	0.613172	0.619612	0.611240	0.627662	0.613494	0.605766	0.632170	0.613494	0.606410	0.610596	0.610918	0.616714	0.580972	0.610596	0.594496	0.605444	0.598360	0.606410	0.601258	0.598038	0.601902	0.599004	0.624120	0.568736	0.603512	0.585802	0.606732	0.599648	0.599326	0.609952	0.600614	0.600292	0.605444	0.611240	0.611562	0.603512	0.618002	0.606732	0.622510	0.612206	0.597072	0.601258	0.602546	0.617036	0.611884	0.612850	0.610274
0.610918	0.599970	0.593208	0.612850	0.603834	0.608342	0.605766	0.608342	0.609952	0.612528	0.607054	0.614138	0.618968	0.596428	0.600292	0.614138	0.606410	0.620256	0.625408	0.606088	0.598682	0.607698	0.606410	0.618002	0.608342	0.629272	0.599004	0.598360	0.606410	0.613494	0.600936	0.610596	0.612850	0.607054	0.605766	0.606410	0.600936	0.603834	0.592564	0.606088	0.661151	0.582260	0.610596	0.606732	0.650203	0.655677	0.600614	0.601258	0.613494	0.629594	0.605122	0.606088	0.618002	0.610274	0.622510	0.614138	0.617358	0.608664	0.613494	0.621866	0.590310	0.617680	0.599970	0.580328	0.597716	0.624442	0.624120	0.604800	0.607054	0.605766	0.596750	0.599326	0.601580	0.601902	0.602224	0.613172	0.600936	0.600292	0.609952	0.599648	0.611884	0.614782	0.600936	0.606410	0.608664	0.600614	0.611884	0.600936	0.601902	0.615104	0.610918	0.610274	0.620256	0.594818	0.618324	0.592886	0.608664	0.608020	0.606732	0.597716	0.611884	0.617358	0.613172	0.645051	0.590954	0.603190	0.619612	0.590632	0.596428	0.601258	0.603190	0.594496	0.602546	0.610596	0.619290	0.574854	0.582582	0.620900	0.604156	0.583226	0.605444	0.598038	0.598038	0.608986	0.609952	0.598682	0.619612	0.596428
0.597072	0.614460	0.602224	0.599326	0.612850	0.589988	0.598360	0.618968	0.605444	0.603512	0.610274	0.605122	0.603512	0.601902	0.587090	0.601258	0.605444	0.610596	0.627340	0.599648	0.597716	0.610918	0.606088	0.607698	0.613494	0.639899	0.613494	0.610274	0.611884	0.606088	0.621222	0.616392	0.617036	0.608342	0.600936	0.607376	0.614782	0.602546	0.609308	0.609308	0.625730	0.591598	0.542975	0.592886	0.640221	0.592242	0.597716	0.602868	0.602224	0.600936	0.609630	0.592564	0.597072	0.602546	0.599326	0.611562	0.616070	0.596106	0.619612	0.607054	0.613494	0.606732	0.603512	0.598682	0.606088	0.624442	0.612850	0.614782	0.611562	0.616392	0.600292	0.604800	0.606732	0.616714	0.609630	0.618646	0.610596	0.609308	0.624442	0.608986	0.605766	0.612850	0.609308	0.595784	0.609308	0.604156	0.596428	0.602546	0.600292	0.596750	0.609952	0.599004	0.609952	0.609630	0.597072	0.595462	0.603190	0.590310	0.612206	0.579040	0.602546	0.615748	0.607054	0.611884	0.616714	0.587412	0.614782	0.613816	0.603512	0.608986	0.611240	0.610596	0.598360	0.613816	0.608342	0.605766	0.602224	0.604156	0.608664	0.613172	0.597394	0.606410	0.602224	0.597716	0.614782	0.599648	0.608664	0.608986
0.615748	0.604478	0.601580	0.624120	0.605122	0.604478	0.609630	0.614138	0.605122	0.611240	0.606732	0.605444	0.613816	0.612850	0.587734	0.607376	0.599326	0.613816	0.611240	0.597072	0.582582	0.606732	0.600614	0.607376	0.617680	0.599648	0.593852	0.596428	0.591276	0.595140	0.615426	0.596106	0.611884	0.628628	0.607376	0.623154	0.608986	0.594818	0.505945	0.666947	0.652457	0.622510	0.541365	0.605766	0.663405	0.580650	0.603512	0.603834	0.593852	0.650203	0.608342	0.619612	0.595140	0.603190	0.608342	0.610596	0.598360	0.599970	0.605766	0.604800	0.641509	0.611884	0.603190	0.610918	0.612528	0.591920	0.551347	0.613494	0.609952	0.606088	0.597072	0.619612	0.621866	0.606410	0.606088	0.622510	0.599970	0.604800	0.455712	0.573566	0.751634	0.610918	0.608664	0.622510	0.611884	0.606732	0.608986	0.606410	0.613494	0.622510	0.608986	0.613816	0.620578	0.613816	0.616714	0.607376	0.593208	0.599648	0.605122	0.581294	0.608020	0.604156	0.603190	0.611240	0.592242	0.578396	0.599970	0.600936	0.599970	0.607376	0.601258	0.622188	0.607698	0.605444	0.609952	0.615748	0.607054	0.608986	0.609952	0.619612	0.609630	0.609630	0.612528	0.616392	0.611884	0.612206	0.613494	0.608664
0.587090	0.602224	0.613172	0.603190	0.605444	0.611240	0.592564	0.615748	0.596750	0.599004	0.600614	0.604800	0.590954	0.610918	0.604478	0.617358	0.614138	0.607698	0.621544	0.620900	0.590310	0.612850	0.600614	0.608664	0.631848	0.614460	0.613172	0.623798	0.604156	0.611884	0.609952	0.590632	0.609952	0.621866	0.600614	0.596106	0.605122	0.619290	0.609308	0.625086	0.633458	0.608342	0.564228	0.583870	0.661473	0.589988	0.603512	0.619934	0.601902	0.629272	0.608020	0.609952	0.580972	0.601902	0.602224	0.618646	0.609630	0.585158	0.617036	0.615426	0.631526	0.576142	0.665981	0.611884	0.619612	0.603190	0.588700	0.625730	0.612850	0.619290	0.605766	0.611240	0.607698	0.605122	0.601902	0.623476	0.565838	0.577108	0.601902	0.606088	0.611884	0.607698	0.589666	0.599326	0.602546	0.603512	0.602546	0.610274	0.571312	0.608020	0.604800	0.608020	0.623154	0.609952	0.597072	0.606732	0.601902	0.630560	0.613816	0.608020	0.599326	0.608986	0.605122	0.601902	0.596106	0.610918	0.608020	0.620578	0.604478	0.600614	0.604478	0.602224	0.597394	0.605766	0.605122	0.618324	0.608664	0.609630	0.616714	0.572278	0.610596	0.608342	0.594496	0.605444	0.600292	0.590954	0.617358	0.592564
0.624120	0.613816	0.622832	0.616714	0.603512	0.612206	0.604478	0.614138	0.594818	0.615104	0.609952	0.599970	0.612850	0.595784	0.613172	0.593208	0.605122	0.598360	0.616392	0.601258	0.581938	0.600936	0.600614	0.602868	0.612850	0.596106	0.610918	0.595784	0.612206	0.612528	0.606410	0.600936	0.607698	0.611884	0.577108	0.601258	0.609630	0.624120	0.614138	0.622188	0.621544	0.605766	0.618002	0.604156	0.637645	0.617680	0.605444	0.603834	0.623798	0.614782	0.605766	0.617358	0.604478	0.597072	0.607698	0.606088	0.606732	0.599004	0.604478	0.612528	0.625408	0.595462	0.605766	0.604156	0.600614	0.589344	0.591276	0.616392	0.613172	0.614460	0.608020	0.604156	0.601580	0.603512	0.614782	0.603512	0.575498	0.619612	0.616392	0.651491	0.618324	0.610274	0.599326	0.589988	0.606410	0.610596	0.609952	0.599970	0.620900	0.608986	0.602224	0.608342	0.609630	0.606732	0.606088	0.612528	0.603834	0.614138	0.607698	0.599326	0.595784	0.593852	0.613172	0.592886	0.589022	0.609630	0.606088	0.607698	0.610274	0.606088	0.608986	0.610274	0.613816	0.595784	0.612528	0.606732	0.613494	0.620256	0.614460	0.635713	0.608342	0.608342	0.620900	0.606732	0.603190	0.608986	0.602546	0.609630
0.599004	0.584192	0.607698	0.596750	0.598038	0.599970	0.593208	0.605122	0.590954	0.590632	0.601580	0.607054	0.610596	0.608986	0.605122	0.625408	0.620256	0.593208	0.602224	0.609308	0.591598	0.604478	0.611240	0.602868	0.633780	0.610274	0.612528	0.615748	0.593852	0.614138	0.604156	0.606410	0.605444	0.625408	0.603834	0.597716	0.612528	0.598038	0.616070	0.616392	0.629916	0.606410	0.593530	0.586124	0.582904	0.603512	0.605444	0.608020	0.600614	0.643441	0.604800	0.597716	0.605766	0.598038	0.605766	0.617358	0.613816	0.631204	0.609630	0.625408	0.614138	0.596106	0.603834	0.622510	0.615426	0.623798	0.604478	0.620900	0.620900	0.626052	0.611884	0.609630	0.587412	0.611884	0.599004	0.598360	0.576786	0.568092	0.604156	0.605122	0.620578	0.607376	0.607054	0.582582	0.603190	0.606088	0.589988	0.605444	0.604800	0.603834	0.604156	0.603512	0.612850	0.613816	0.603190	0.601580	0.589666	0.599970	0.588056	0.613816	0.592564	0.618968	0.612850	0.615748	0.635713	0.607698	0.597394	0.613816	0.599648	0.615104	0.609630	0.609308	0.621866	0.599970	0.598360	0.607376	0.608664	0.596106	0.589344	0.600936	0.598682	0.603190	0.606410	0.600292	0.604478	0.608342	0.601258	0.609308
0.603834	0.590954	0.612850	0.620578	0.607054	0.578396	0.602868	0.609308	0.612528	0.601580	0.604800	0.608342	0.598682	0.599970	0.604478	0.606410	0.602224	0.611562	0.606410	0.608020	0.592242	0.608020	0.610918	0.603512	0.613172	0.609952	0.606088	0.617680	0.606732	0.613816	0.609308	0.620578	0.608342	0.623476	0.611884	0.608342	0.602546	0.618002	0.618324	0.629916	0.632170	0.615104	0.600292	0.598682	0.580006	0.611240	0.603190	0.615426	0.606410	0.631848	0.599004	0.600292	0.591598	0.604800	0.592242	0.612206	0.619290	0.615426	0.599004	0.607376	0.607054	0.599970	0.604800	0.608020	0.620900	0.622188	0.599648	0.614138	0.617680	0.613816	0.614460	0.609308	0.615426	0.609630	0.602868	0.618324	0.566482	0.580972	0.612528	0.608986	0.682081	0.608664	0.611562	0.589022	0.606088	0.599326	0.608664	0.600292	0.599648	0.600614	0.605122	0.608986	0.619612	0.598038	0.590632	0.617358	0.589666	0.596428	0.608342	0.616714	0.609952	0.602868	0.602868	0.622510	0.620578	0.602546	0.601258	0.601258	0.605122	0.616392	0.613494	0.596106	0.622188	0.615426	0.601258	0.610918	0.618968	0.616392	0.617680	0.608342	0.607698	0.607376	0.597072	0.600292	0.605122	0.599004	0.611240	0.610596
0.603190	0.604800	0.599970	0.610274	0.618002	0.603834	0.603512	0.615104	0.613172	0.593530	0.608664	0.610274	0.613816	0.610918	0.600936	0.609630	0.608342	0.609308	0.606088	0.604800	0.586446	0.610274	0.608342	0.590310	0.606732	0.593208	0.614138	0.595140	0.597394	0.616714	0.631848	0.607376	0.612528	0.617358	0.610596	0.617036	0.609952	0.609630	0.618324	0.626374	0.648915	0.614460	0.616714	0.621866	0.613816	0.604478	0.600936	0.610274	0.609952	0.664371	0.597072	0.608020	0.612850	0.606732	0.610918	0.604800	0.607376	0.624120	0.598682	0.591276	0.630882	0.610596	0.602546	0.608342	0.611562	0.608986	0.600292	0.577430	0.608986	0.602868	0.607054	0.605122	0.618002	0.608664	0.611240	0.609630	0.546839	0.577108	0.613816	0.606410	0.648271	0.604478	0.623154	0.594496	0.619612	0.610596	0.617036	0.601258	0.522045	0.607054	0.610596	0.604800	0.629272	0.609952	0.582260	0.599326	0.599970	0.511741	0.605444	0.606732	0.603190	0.605766	0.611562	0.603834	0.608986	0.600292	0.597716	0.598360	0.596750	0.604156	0.614138	0.598038	0.613494	0.615426	0.593530	0.609630	0.623798	0.604156	0.618646	0.617036	0.594174	0.594174	0.615426	0.591920	0.616392	0.608986	0.617680	0.620900
0.633136	0.594818	0.616392	0.603512	0.599004	0.608020	0.615426	0.610274	0.616392	0.601580	0.625730	0.623798	0.600936	0.610596	0.611884	0.611884	0.614782	0.611562	0.611562	0.611240	0.607698	0.599648	0.620256	0.577108	0.609952	0.608986	0.595462	0.602546	0.593852	0.601258	0.614460	0.600614	0.594818	0.604156	0.605766	0.597394	0.608986	0.595140	0.608664	0.628950	0.603190	0.611240	0.621866	0.613172	0.607376	0.612206	0.606410	0.606088	0.609630	0.642797	0.593852	0.608986	0.603512	0.619934	0.615104	0.618646	0.618646	0.615426	0.584514	0.596106	0.618002	0.599326	0.597072	0.600936	0.633780	0.621866	0.606410	0.545551	0.625408	0.669845	0.640543	0.601580	0.613816	0.599004	0.609952	0.603190	0.569702	0.589344	0.611562	0.603834	0.618324	0.601580	0.614460	0.624120	0.607376	0.610274	0.618324	0.598682	0.614460	0.606410	0.611562	0.604478	0.628306	0.606088	0.613494	0.597716	0.611562	0.532671	0.608342	0.615104	0.612850	0.600936	0.600614	0.597394	0.601580	0.600936	0.600936	0.590310	0.616392	0.599648	0.609952	0.606088	0.605766	0.601258	0.590632	0.598038	0.606088	0.608986	0.602868	0.615748	0.602868	0.606732	0.618324	0.605444	0.595140	0.612850	0.605444	0.602868
0.599326	0.573244	0.606410	0.615748	0.622510	0.609308	0.617036	0.614460	0.603512	0.614460	0.592242	0.578396	0.606088	0.600614	0.606732	0.629594	0.598682	0.603834	0.610596	0.599648	0.596106	0.608664	0.599004	0.596106	0.598682	0.604800	0.600292	0.607698	0.588056	0.603512	0.609308	0.623798	0.595140	0.608020	0.603512	0.604800	0.611884	0.607054	0.622188	0.627662	0.619612	0.619290	0.604156	0.606410	0.594818	0.617358	0.615426	0.615426	0.612850	0.615748	0.588700	0.601902	0.588378	0.603512	0.604478	0.597072	0.600292	0.620578	0.592564	0.585802	0.607376	0.608986	0.593208	0.597072	0.610274	0.608664	0.609630	0.563584	0.610918	0.600614	0.665659	0.606732	0.617036	0.597716	0.619290	0.614460	0.583548	0.601258	0.609630	0.618968	0.611884	0.638611	0.616070	0.606410	0.602546	0.614460	0.622188	0.611240	0.594818	0.604156	0.606410	0.601580	0.612850	0.602546	0.602546	0.610596	0.596750	0.537179	0.609630	0.604478	0.599004	0.598360	0.594818	0.606088	0.618968	0.600614	0.602546	0.602224	0.606410	0.603512	0.600292	0.606410	0.616070	0.610918	0.611562	0.607698	0.608986	0.606088	0.610596	0.610274	0.599648	0.612528	0.619290	0.628950	0.606732	0.605766	0.608986	0.618646
0.595462	0.585158	0.608986	0.613172	0.631848	0.603834	0.612528	0.622188	0.608664	0.619934	0.617036	0.605444	0.615748	0.607376	0.612528	0.614782	0.605444	0.613494	0.617680	0.598038	0.592242	0.613494	0.601580	0.599970	0.600936	0.610918	0.611884	0.603190	0.586124	0.595784	0.600614	0.605444	0.598360	0.604800	0.610596	0.620256	0.608986	0.601258	0.625408	0.614782	0.597394	0.603512	0.600292	0.620900	0.586446	0.622832	0.622832	0.630560	0.616070	0.594496	0.613172	0.605766	0.601258	0.598038	0.613494	0.611884	0.607054	0.634102	0.607054	0.593208	0.596106	0.606732	0.590310	0.607376	0.599970	0.602546	0.612850	0.571634	0.606410	0.590632	0.640543	0.609952	0.606410	0.589344	0.594496	0.608664	0.583870	0.574854	0.604478	0.620256	0.617036	0.693029	0.612206	0.601580	0.600614	0.609308	0.610918	0.624120	0.539433	0.614460	0.619934	0.608020	0.620256	0.608020	0.603834	0.615426	0.561974	0.533637	0.613816	0.599004	0.599326	0.607698	0.593530	0.607054	0.615748	0.603512	0.616070	0.610918	0.596106	0.598038	0.611562	0.596428	0.605122	0.598682	0.606410	0.609630	0.612206	0.612850	0.614138	0.609630	0.592886	0.605444	0.600292	0.622188	0.613494	0.601580	0.614460	0.606732
0.609308	0.581294	0.608342	0.599970	0.613816	0.608342	0.612850	0.615426	0.616392	0.615426	0.617358	0.619934	0.574210	0.596106	0.608664	0.606088	0.617358	0.606410	0.598682	0.594818	0.608664	0.606732	0.608020	0.587090	0.592242	0.609630	0.594818	0.606732	0.596750	0.601902	0.610274	0.612850	0.602546	0.610596	0.600292	0.604800	0.610274	0.606410	0.609630	0.633458	0.603834	0.608020	0.620578	0.622188	0.610918	0.618324	0.607054	0.610918	0.614782	0.581938	0.613816	0.598038	0.595784	0.611562	0.608020	0.603190	0.619934	0.609630	0.604156	0.595462	0.607698	0.595784	0.598038	0.600936	0.603190	0.625086	0.602868	0.551669	0.601258	0.613816	0.614138	0.616714	0.601902	0.583548	0.608020	0.610596	0.606732	0.575820	0.599004	0.610918	0.599970	0.653745	0.606088	0.631526	0.613494	0.617680	0.619290	0.619612	0.598360	0.589988	0.617358	0.610918	0.619290	0.611240	0.602546	0.598038	0.552635	0.560041	0.605122	0.599004	0.612528	0.602546	0.604800	0.596750	0.627018	0.607376	0.589022	0.604800	0.604800	0.606410	0.610274	0.614138	0.609630	0.619290	0.599326	0.595140	0.613172	0.599326	0.614460	0.614782	0.613172	0.613816	0.615748	0.611884	0.607698	0.595140	0.604478	0.612850
0.601902	0.606732	0.613816	0.607376	0.607376	0.599970	0.605444	0.608986	0.605122	0.602224	0.601902	0.600936	0.583870	0.595462	0.603190	0.602224	0.618968	0.617680	0.620256	0.602546	0.602546	0.607054	0.606410	0.591920	0.611884	0.618968	0.622188	0.616714	0.611562	0.604800	0.610596	0.607376	0.595784	0.599648	0.615748	0.620900	0.617358	0.613816	0.608342	0.623798	0.598682	0.592242	0.600936	0.601580	0.610274	0.607054	0.600614	0.619934	0.615426	0.573244	0.606410	0.603512	0.598360	0.599970	0.602546	0.602224	0.616714	0.583548	0.611240	0.583226	0.607698	0.611884	0.612206	0.600936	0.610274	0.622510	0.606732	0.601580	0.602868	0.610596	0.621222	0.725874	0.618646	0.587412	0.611884	0.600936	0.591276	0.570024	0.595784	0.613816	0.605444	0.617358	0.608342	0.612850	0.604156	0.597394	0.601902	0.608342	0.593852	0.577430	0.603834	0.603190	0.620900	0.609630	0.599004	0.615104	0.553279	0.559398	0.614138	0.608986	0.606410	0.607698	0.617358	0.626052	0.614460	0.600292	0.608342	0.619290	0.604478	0.609308	0.617358	0.616070	0.610596	0.615748	0.612850	0.611562	0.619934	0.588056	0.611562	0.601580	0.598360	0.606732	0.599648	0.607698	0.616070	0.584836	0.596750	0.598360
0.616392	0.613172	0.602868	0.606732	0.605766	0.599970	0.604800	0.607054	0.605122	0.620256	0.615748	0.612850	0.575498	0.603512	0.604800	0.594496	0.602224	0.593852	0.609952	0.587412	0.613816	0.601902	0.605444	0.590954	0.598038	0.597716	0.608020	0.613494	0.608664	0.613172	0.616070	0.609952	0.610918	0.580972	0.609308	0.613494	0.590954	0.622510	0.619290	0.618002	0.616070	0.607376	0.606088	0.617036	0.609630	0.601902	0.596106	0.606088	0.607376	0.599326	0.602224	0.618646	0.614782	0.588378	0.600614	0.602546	0.602546	0.601258	0.626052	0.590632	0.616714	0.616714	0.619612	0.577430	0.606732	0.611562	0.592242	0.647305	0.587090	0.612850	0.610596	0.685945	0.624442	0.584192	0.608342	0.577430	0.616070	0.615748	0.599648	0.596750	0.622832	0.623476	0.624764	0.639255	0.608342	0.606410	0.612528	0.599970	0.607054	0.557787	0.600936	0.599648	0.627662	0.596750	0.613494	0.581938	0.564228	0.563584	0.596750	0.602546	0.600936	0.599004	0.595462	0.604156	0.613172	0.599648	0.613816	0.604800	0.610274	0.610596	0.611240	0.614782	0.600936	0.600936	0.611884	0.617036	0.607698	0.560041	0.625408	0.610596	0.644407	0.605444	0.602868	0.612206	0.600614	0.582260	0.607698	0.605122
0.610596	0.611884	0.598038	0.599004	0.613172	0.608664	0.603190	0.615426	0.609952	0.624764	0.616070	0.610596	0.584514	0.586446	0.601580	0.601580	0.608664	0.604800	0.602546	0.590954	0.608664	0.602868	0.616392	0.609308	0.596428	0.604478	0.601580	0.601258	0.602224	0.602868	0.614460	0.612528	0.607376	0.588700	0.617680	0.612850	0.622510	0.610596	0.607054	0.626374	0.599970	0.605766	0.613172	0.616070	0.616070	0.614138	0.610274	0.601580	0.608020	0.598360	0.606410	0.618968	0.605766	0.614460	0.603834	0.595462	0.608020	0.644729	0.567448	0.625408	0.611562	0.609952	0.603834	0.608020	0.611884	0.623154	0.589666	0.636034	0.590310	0.603512	0.608986	0.629594	0.604156	0.614782	0.603834	0.592886	0.620578	0.602546	0.589344	0.606732	0.608020	0.624442	0.698503	0.603834	0.607376	0.613816	0.601258	0.599004	0.602546	0.551025	0.610596	0.599648	0.618002	0.606732	0.602868	0.576142	0.572600	0.537179	0.606410	0.605766	0.599970	0.597394	0.594174	0.597394	0.622188	0.579684	0.608986	0.623476	0.606732	0.610596	0.604478	0.617358	0.602224	0.594496	0.601580	0.635390	0.612850	0.583226	0.628306	0.617680	0.624120	0.629272	0.593530	0.609630	0.614782	0.595140	0.609308	0.616392
0.615104	0.623798	0.615426	0.606088	0.617358	0.613816	0.599004	0.608986	0.606732	0.607698	0.612206	0.604156	0.600614	0.573566	0.597072	0.607376	0.602868	0.606732	0.600936	0.595140	0.599004	0.608342	0.615426	0.604156	0.606088	0.602868	0.604156	0.613816	0.607376	0.614460	0.610918	0.609952	0.617036	0.617358	0.608664	0.614782	0.612206	0.600614	0.617680	0.617680	0.609952	0.613816	0.611884	0.613816	0.616392	0.609630	0.609308	0.612850	0.591598	0.601902	0.603190	0.601902	0.606410	0.604156	0.596106	0.603834	0.438646	0.664371	0.609630	0.605444	0.604478	0.613172	0.606088	0.611562	0.620900	0.608986	0.635068	0.602546	0.582582	0.609308	0.613172	0.618002	0.633136	0.613172	0.606088	0.598038	0.563584	0.478896	0.692707	0.627984	0.606732	0.618002	0.648593	0.616070	0.613816	0.605444	0.612206	0.612206	0.599326	0.557143	0.593208	0.612206	0.609952	0.607054	0.602868	0.586768	0.606410	0.528163	0.596428	0.599648	0.610596	0.604156	0.598682	0.600936	0.614460	0.599970	0.607054	0.618646	0.611240	0.606410	0.621222	0.610596	0.603512	0.579040	0.609630	0.643441	0.614138	0.619612	0.625408	0.629272	0.614138	0.606732	0.595140	0.601258	0.613816	0.612850	0.610274	0.616714
0.602546	0.608020	0.602546	0.611884	0.606732	0.603190	0.619290	0.609630	0.622832	0.626374	0.609952	0.611562	0.609630	0.589022	0.607376	0.607376	0.593530	0.625730	0.598038	0.605444	0.615104	0.598038	0.603834	0.616714	0.598360	0.592886	0.604478	0.589022	0.622832	0.606410	0.602546	0.610596	0.603512	0.598360	0.609308	0.608664	0.607698	0.611884	0.613816	0.627984	0.621866	0.609308	0.618646	0.613816	0.610274	0.608342	0.607054	0.605122	0.611240	0.623154	0.606732	0.608020	0.618324	0.603512	0.594174	0.601902	0.473100	0.610596	0.611884	0.606410	0.617680	0.601580	0.613816	0.611884	0.604156	0.573888	0.607376	0.595140	0.586446	0.599970	0.618646	0.610274	0.657931	0.608342	0.601580	0.597716	0.603834	0.600292	0.575176	0.593208	0.618646	0.606732	0.621866	0.620578	0.626052	0.605766	0.625086	0.608020	0.616392	0.614138	0.582582	0.614138	0.632492	0.598682	0.609952	0.588700	0.597394	0.511097	0.595462	0.602224	0.616714	0.607698	0.594174	0.616392	0.602868	0.566160	0.607376	0.602224	0.609308	0.614460	0.612850	0.614138	0.620256	0.568736	0.603512	0.610274	0.619290	0.614460	0.600292	0.621866	0.606732	0.612528	0.599326	0.618646	0.600936	0.614460	0.618002	0.599970
0.608664	0.601902	0.601902	0.594818	0.607054	0.612206	0.607376	0.612850	0.614460	0.618002	0.610596	0.601902	0.611884	0.592886	0.611884	0.602546	0.613816	0.624442	0.614138	0.618324	0.596428	0.608664	0.615104	0.623154	0.597716	0.603834	0.604156	0.617680	0.613816	0.601258	0.607376	0.609630	0.589022	0.598360	0.585802	0.598682	0.579362	0.619934	0.596428	0.631204	0.607376	0.601580	0.608986	0.601580	0.613172	0.575820	0.619934	0.602868	0.619612	0.601580	0.612528	0.609952	0.628950	0.612528	0.590310	0.603512	0.481151	0.612206	0.610918	0.623798	0.614460	0.609630	0.616714	0.613816	0.605766	0.557465	0.599004	0.583870	0.577108	0.593530	0.611562	0.618646	0.617036	0.609952	0.598682	0.585480	0.599648	0.594818	0.576786	0.603512	0.607054	0.612850	0.622510	0.598038	0.611562	0.607054	0.611240	0.609630	0.599648	0.602868	0.611240	0.618324	0.618324	0.618968	0.576786	0.594818	0.607698	0.559398	0.603834	0.620578	0.611240	0.599004	0.624442	0.604478	0.605766	0.598038	0.592242	0.608020	0.586124	0.602224	0.602868	0.606410	0.610274	0.603834	0.600292	0.597716	0.604156	0.612206	0.592886	0.612206	0.610596	0.594818	0.638933	0.617358	0.607376	0.596106	0.597394	0.618324
0.612528	0.600292	0.602546	0.597072	0.601258	0.598038	0.604800	0.600614	0.606410	0.611884	0.614782	0.606410	0.617036	0.602546	0.606732	0.608020	0.614138	0.615426	0.605766	0.609308	0.597716	0.610918	0.612528	0.619612	0.602868	0.606088	0.611240	0.611562	0.605444	0.600936	0.594496	0.605766	0.611562	0.619612	0.594818	0.611240	0.572922	0.614782	0.607698	0.631848	0.603512	0.597394	0.599326	0.606088	0.598682	0.570990	0.607376	0.596106	0.611240	0.584514	0.605122	0.607698	0.615104	0.595784	0.602868	0.617358	0.502725	0.618968	0.614138	0.612528	0.625408	0.614782	0.620256	0.608664	0.588378	0.562940	0.581616	0.637645	0.585802	0.602224	0.606732	0.620900	0.610918	0.596428	0.603512	0.615426	0.596106	0.606410	0.601580	0.588700	0.607054	0.607376	0.603190	0.589022	0.604156	0.613172	0.611884	0.599004	0.598682	0.614138	0.602224	0.609952	0.634424	0.604478	0.602224	0.585802	0.607698	0.572278	0.599326	0.618324	0.624442	0.612850	0.603512	0.607698	0.625408	0.611240	0.600936	0.605766	0.605766	0.616070	0.604800	0.598038	0.608664	0.599326	0.592886	0.607054	0.595140	0.618324	0.606410	0.598682	0.612850	0.607054	0.618002	0.601258	0.595784	0.590310	0.604800	0.606410
0.612206	0.599970	0.606088	0.602224	0.597394	0.597394	0.600292	0.609308	0.597394	0.623476	0.606088	0.590632	0.608664	0.588378	0.581938	0.604800	0.612206	0.619290	0.604800	0.604156	0.601902	0.590632	0.602224	0.612528	0.628950	0.607376	0.625730	0.605122	0.615748	0.615426	0.605444	0.600614	0.606732	0.611884	0.613494	0.615104	0.590310	0.625408	0.607698	0.632170	0.609308	0.604478	0.600614	0.610596	0.627340	0.564872	0.611884	0.591276	0.638933	0.575176	0.603190	0.599004	0.602546	0.592886	0.600936	0.617358	0.540077	0.601258	0.606410	0.615426	0.611562	0.613494	0.605122	0.602868	0.517215	0.630882	0.621866	0.580006	0.612850	0.598682	0.616714	0.627984	0.625086	0.592242	0.612206	0.610918	0.612206	0.601580	0.556499	0.576464	0.615748	0.612850	0.632170	0.588056	0.613494	0.610274	0.608664	0.590954	0.596750	0.611884	0.612528	0.582582	0.605444	0.604156	0.624120	0.594174	0.590954	0.551347	0.602224	0.605444	0.610596	0.618324	0.594818	0.610918	0.616070	0.605766	0.608020	0.606732	0.608342	0.619934	0.604478	0.617680	0.605444	0.640865	0.605444	0.614460	0.604478	0.622510	0.611240	0.596750	0.612850	0.611884	0.608986	0.604800	0.613494	0.588056	0.605122	0.595784
0.607698	0.606088	0.604800	0.611884	0.593530	0.608342	0.598682	0.616070	0.600936	0.613494	0.601902	0.593530	0.599004	0.608020	0.567770	0.611562	0.607054	0.604800	0.605122	0.618646	0.619290	0.597394	0.615426	0.615104	0.619612	0.609952	0.598360	0.614460	0.616392	0.616392	0.605766	0.613816	0.600614	0.617036	0.605444	0.596106	0.587090	0.611562	0.601258	0.621866	0.607698	0.610918	0.600936	0.604156	0.623476	0.570024	0.599970	0.602868	0.612206	0.606732	0.606732	0.610918	0.601580	0.605766	0.572278	0.613172	0.523977	0.583226	0.604156	0.618646	0.615426	0.610918	0.611884	0.608020	0.478252	0.585802	0.615426	0.572600	0.618002	0.594174	0.608664	0.623798	0.655033	0.587734	0.599648	0.602546	0.619934	0.607054	0.613816	0.573888	0.589666	0.606088	0.626374	0.605444	0.600292	0.607054	0.608664	0.604800	0.604800	0.583226	0.610918	0.591920	0.601580	0.614138	0.654067	0.592242	0.609952	0.557787	0.589988	0.607054	0.615104	0.612528	0.623154	0.618324	0.630238	0.614138	0.590954	0.611562	0.612528	0.601580	0.602224	0.600292	0.606410	0.612850	0.613494	0.603512	0.615426	0.606410	0.605122	0.609630	0.604800	0.611562	0.599648	0.601902	0.607054	0.608664	0.604800	0.604800
0.608986	0.606732	0.615104	0.608020	0.587734	0.609308	0.601580	0.599004	0.606088	0.596106	0.601258	0.600936	0.591598	0.603834	0.571956	0.604156	0.602224	0.608020	0.608664	0.617680	0.616392	0.588378	0.625730	0.617036	0.622188	0.606732	0.611562	0.608020	0.613494	0.612528	0.616070	0.616392	0.603512	0.617358	0.609952	0.603512	0.593208	0.599004	0.621866	0.620256	0.608664	0.603190	0.605444	0.608342	0.601258	0.557143	0.603512	0.599970	0.609952	0.612528	0.580006	0.613494	0.607698	0.599648	0.568736	0.596428	0.588700	0.602224	0.605122	0.609630	0.633458	0.616070	0.611562	0.600292	0.479218	0.614138	0.603190	0.623154	0.621544	0.604478	0.618002	0.627340	0.618646	0.610918	0.620900	0.601258	0.602868	0.607376	0.607376	0.596106	0.592242	0.603834	0.637322	0.603512	0.606088	0.606732	0.589022	0.602224	0.608986	0.590954	0.623476	0.512063	0.625730	0.610274	0.685623	0.573566	0.600614	0.594818	0.586768	0.601580	0.619612	0.618646	0.624120	0.601580	0.635068	0.623798	0.598682	0.600936	0.593530	0.597716	0.619612	0.608664	0.608986	0.635390	0.615748	0.606088	0.567770	0.596106	0.623798	0.603834	0.595140	0.612850	0.611884	0.602868	0.608020	0.599648	0.612206	0.589988
0.602224	0.596750	0.603512	0.608020	0.593530	0.613494	0.602868	0.600936	0.604478	0.594818	0.611562	0.618324	0.592886	0.604800	0.606088	0.599004	0.612850	0.604156	0.607698	0.614138	0.614138	0.587734	0.611884	0.606732	0.616392	0.612206	0.612206	0.618002	0.616714	0.592886	0.613816	0.611884	0.607698	0.610274	0.613816	0.599970	0.617680	0.598682	0.603834	0.644085	0.602868	0.606732	0.606410	0.604800	0.602224	0.561007	0.596428	0.610274	0.614138	0.604156	0.611562	0.603834	0.598360	0.593530	0.586768	0.610274	0.608020	0.378753	0.629916	0.777716	0.630560	0.617358	0.613816	0.603834	0.481473	0.607054	0.599648	0.614460	0.624120	0.674675	0.616714	0.620900	0.626052	0.616714	0.616392	0.585158	0.633458	0.594174	0.607698	0.567770	0.585802	0.607698	0.639899	0.614460	0.600936	0.616714	0.591598	0.599648	0.608664	0.605444	0.569702	0.570024	0.609630	0.599326	0.668557	0.524299	0.624764	0.589666	0.614460	0.616392	0.592242	0.608664	0.614460	0.617680	0.611240	0.610918	0.609308	0.629916	0.570024	0.608342	0.614138	0.590310	0.611884	0.619290	0.614460	0.622188	0.566804	0.606088	0.604478	0.610274	0.597716	0.606732	0.603834	0.600292	0.605766	0.614782	0.622510	0.596750
0.601258	0.593852	0.617036	0.602868	0.623476	0.604800	0.608664	0.616070	0.603834	0.604800	0.601258	0.601580	0.608342	0.611240	0.597394	0.599326	0.607698	0.603190	0.613816	0.597716	0.597716	0.598682	0.596750	0.598038	0.610918	0.610596	0.612206	0.605766	0.608986	0.595140	0.619934	0.609630	0.595784	0.600936	0.607698	0.611240	0.623154	0.598038	0.622832	0.634424	0.607698	0.614782	0.600292	0.599970	0.619290	0.505945	0.582904	0.610596	0.630560	0.602546	0.627340	0.602224	0.609308	0.596750	0.584836	0.580972	0.418360	0.653101	0.660829	0.605122	0.623154	0.613816	0.621544	0.611240	0.509165	0.600936	0.603190	0.610918	0.610596	0.712349	0.615104	0.655355	0.616070	0.613816	0.602546	0.617036	0.630882	0.597072	0.596106	0.611240	0.593208	0.611884	0.674997	0.610918	0.603512	0.595140	0.600614	0.600614	0.620578	0.597394	0.599648	0.548449	0.602546	0.595784	0.659219	0.506911	0.614782	0.586446	0.602546	0.620900	0.603512	0.613494	0.616392	0.621222	0.605122	0.616392	0.600936	0.613494	0.610918	0.605122	0.621544	0.610918	0.605766	0.624120	0.613494	0.596106	0.613172	0.585158	0.599004	0.614782	0.600292	0.609308	0.604478	0.599970	0.611562	0.603834	0.611562	0.603512
0.621866	0.587734	0.608664	0.608342	0.604156	0.589022	0.615104	0.593208	0.615426	0.600936	0.604156	0.611240	0.604156	0.587090	0.624120	0.585480	0.608664	0.613816	0.612528	0.604156	0.620578	0.603190	0.598038	0.619290	0.614138	0.615104	0.608664	0.605122	0.610918	0.590954	0.606088	0.611562	0.596106	0.599970	0.603190	0.606410	0.608342	0.601580	0.614138	0.608664	0.611562	0.605122	0.605122	0.606410	0.616070	0.594174	0.578396	0.587412	0.615104	0.602546	0.627984	0.602546	0.612206	0.602224	0.608020	0.605122	0.602224	0.569380	0.593530	0.608342	0.619290	0.625408	0.618324	0.608342	0.541687	0.596106	0.600936	0.611562	0.599648	0.708485	0.600614	0.621866	0.617358	0.579362	0.602224	0.589666	0.609308	0.597394	0.604478	0.599648	0.588700	0.622510	0.608020	0.607698	0.600292	0.593852	0.614138	0.598360	0.613172	0.583226	0.595462	0.532027	0.615748	0.598038	0.642153	0.530417	0.611562	0.612206	0.606410	0.610918	0.610918	0.603190	0.591276	0.619290	0.597394	0.610274	0.593530	0.609308	0.623476	0.606410	0.600936	0.598682	0.601258	0.601258	0.614460	0.617680	0.602224	0.608986	0.615426	0.602546	0.598682	0.594496	0.598038	0.602546	0.596750	0.606732	0.616070	0.573888
0.606732	0.591920	0.618968	0.599004	0.607376	0.588378	0.596750	0.617680	0.605766	0.592242	0.612528	0.605122	0.609630	0.599326	0.613816	0.580006	0.608664	0.596750	0.608342	0.605122	0.598682	0.616714	0.603190	0.606410	0.618324	0.602868	0.616714	0.600614	0.607376	0.604478	0.620578	0.607376	0.615104	0.603190	0.600936	0.615104	0.605444	0.602546	0.626052	0.609952	0.620900	0.610596	0.597072	0.603190	0.614782	0.518825	0.602224	0.651491	0.618968	0.604156	0.622832	0.588700	0.609308	0.603190	0.593530	0.597394	0.597072	0.582582	0.601580	0.606732	0.640543	0.530739	0.615426	0.540399	0.645051	0.582582	0.614138	0.605444	0.613816	0.715892	0.621544	0.635390	0.612850	0.610596	0.615748	0.587734	0.606732	0.626052	0.599326	0.656321	0.602224	0.572600	0.671455	0.593530	0.601902	0.594818	0.589666	0.593852	0.625408	0.595784	0.601258	0.564550	0.602546	0.610918	0.661473	0.575820	0.604156	0.562618	0.603512	0.612206	0.603190	0.612528	0.616070	0.607376	0.595784	0.612528	0.617680	0.617036	0.608664	0.599326	0.609952	0.616392	0.603190	0.605766	0.620900	0.610274	0.605444	0.611562	0.602868	0.613494	0.606410	0.599648	0.570024	0.599970	0.596750	0.608664	0.612528	0.589344
0.602868	0.625086	0.571956	0.601902	0.610918	0.598360	0.615426	0.618002	0.610596	0.619934	0.603512	0.615104	0.617358	0.597394	0.611562	0.610274	0.598360	0.608664	0.612850	0.598038	0.613816	0.601258	0.588378	0.607376	0.596106	0.615426	0.614782	0.608986	0.599648	0.605766	0.592886	0.604800	0.610596	0.593530	0.606410	0.608986	0.593852	0.625730	0.617036	0.633780	0.603512	0.602546	0.616070	0.603834	0.618324	0.497573	0.627340	0.601580	0.636679	0.605122	0.622188	0.606732	0.607054	0.608664	0.599648	0.607054	0.603834	0.638933	0.580972	0.611562	0.639577	0.548449	0.616392	0.620578	0.594496	0.607054	0.599326	0.601902	0.626052	0.703655	0.601902	0.602224	0.592564	0.637645	0.607054	0.573566	0.603834	0.637322	0.607054	0.644407	0.607054	0.601580	0.613494	0.605766	0.611884	0.609308	0.615104	0.609630	0.629594	0.600614	0.602868	0.571634	0.604156	0.613816	0.666303	0.575176	0.619934	0.552635	0.590632	0.601580	0.613172	0.595140	0.601258	0.604156	0.601580	0.613816	0.606732	0.599648	0.606088	0.589344	0.599004	0.604478	0.592564	0.613816	0.634102	0.601258	0.605766	0.613172	0.602546	0.609308	0.600614	0.603834	0.614138	0.606410	0.624120	0.622510	0.628628	0.601902
0.607054	0.607698	0.567126	0.601580	0.608986	0.602224	0.594818	0.606732	0.620900	0.605766	0.602868	0.599326	0.604478	0.593208	0.602868	0.596750	0.609308	0.606088	0.614460	0.600292	0.600292	0.606732	0.591276	0.608342	0.617680	0.607054	0.628628	0.627662	0.607054	0.620256	0.604156	0.609630	0.618002	0.602546	0.602546	0.618968	0.608986	0.624764	0.623476	0.623154	0.603512	0.611240	0.601902	0.629916	0.602868	0.516893	0.610274	0.600614	0.609630	0.616070	0.615104	0.607698	0.608020	0.603190	0.599970	0.605122	0.597072	0.632170	0.598360	0.576464	0.631848	0.551991	0.623798	0.596106	0.600936	0.590310	0.618968	0.611884	0.614460	0.720400	0.612850	0.608342	0.618324	0.592242	0.610596	0.584192	0.599648	0.627984	0.608986	0.618324	0.606088	0.601580	0.602224	0.599326	0.597394	0.611240	0.610918	0.589344	0.616714	0.563262	0.628950	0.561652	0.592242	0.612206	0.662117	0.563906	0.608664	0.593852	0.605444	0.610918	0.611562	0.610596	0.612850	0.617036	0.611884	0.611240	0.619290	0.612850	0.603834	0.612850	0.596750	0.609630	0.608342	0.607698	0.622510	0.602868	0.613816	0.612528	0.607376	0.605766	0.608020	0.599004	0.596750	0.601580	0.602546	0.616070	0.612850	0.601580
0.606732	0.609952	0.557465	0.593530	0.595140	0.604156	0.582260	0.613494	0.622832	0.600292	0.613816	0.608664	0.611562	0.614460	0.602546	0.602868	0.604478	0.607376	0.603834	0.614460	0.613172	0.616070	0.619290	0.597072	0.621866	0.608342	0.608342	0.621544	0.601580	0.606410	0.613816	0.619612	0.599326	0.604156	0.598360	0.599648	0.607376	0.601580	0.610274	0.616392	0.610918	0.607054	0.611562	0.623798	0.600936	0.541687	0.593530	0.601902	0.615104	0.607698	0.608342	0.602546	0.599648	0.606410	0.600614	0.599004	0.613494	0.629594	0.608342	0.614782	0.573244	0.535569	0.610918	0.605444	0.620578	0.589666	0.599326	0.605444	0.615748	0.705587	0.653745	0.618324	0.610918	0.600292	0.581938	0.575176	0.589022	0.611562	0.592886	0.608342	0.597394	0.599970	0.614138	0.601258	0.596106	0.610274	0.595784	0.613816	0.598038	0.575176	0.654711	0.599648	0.589022	0.623154	0.666947	0.572278	0.621222	0.539111	0.610274	0.609630	0.606410	0.618002	0.615104	0.617358	0.615426	0.613172	0.607698	0.611240	0.603834	0.607698	0.612850	0.602224	0.602546	0.615426	0.619612	0.601258	0.607054	0.602224	0.594818	0.606732	0.598682	0.597072	0.607054	0.607376	0.609308	0.607376	0.620256	0.604156
0.602546	0.605766	0.560686	0.596428	0.597394	0.599004	0.600936	0.587090	0.595462	0.608986	0.604156	0.607054	0.599648	0.577430	0.613494	0.607376	0.611884	0.602868	0.608342	0.607054	0.616714	0.613494	0.608986	0.620578	0.608020	0.615748	0.611240	0.620256	0.594496	0.607698	0.608020	0.606410	0.608020	0.595784	0.605122	0.608664	0.608664	0.605122	0.624442	0.616714	0.604156	0.606410	0.616392	0.621866	0.594496	0.571634	0.608342	0.603190	0.591598	0.614138	0.629916	0.605444	0.595462	0.607376	0.554567	0.609952	0.602546	0.606088	0.623154	0.608020	0.618968	0.571956	0.612850	0.609952	0.618002	0.557787	0.599970	0.604478	0.598038	0.706875	0.680149	0.602546	0.611562	0.596106	0.580328	0.608986	0.589344	0.600936	0.631526	0.598360	0.593208	0.597716	0.609308	0.601258	0.591276	0.602546	0.599970	0.659219	0.606732	0.558109	0.639899	0.563584	0.579684	0.599970	0.657931	0.592242	0.615104	0.587090	0.609308	0.618646	0.604800	0.592564	0.602868	0.617036	0.619290	0.601580	0.623476	0.610918	0.599970	0.605122	0.603512	0.599326	0.623154	0.612850	0.590310	0.601580	0.601902	0.600614	0.608342	0.601580	0.608986	0.612850	0.604800	0.607698	0.601258	0.607376	0.626052	0.607054
0.601258	0.593530	0.570668	0.617036	0.596428	0.603512	0.601258	0.599326	0.585802	0.599970	0.597394	0.604478	0.603512	0.610596	0.618968	0.598038	0.605766	0.615426	0.599004	0.608342	0.611884	0.580006	0.609952	0.624764	0.610274	0.615748	0.640543	0.615104	0.562618	0.604156	0.606732	0.609630	0.606088	0.600936	0.608986	0.607698	0.598038	0.611884	0.609952	0.599970	0.608020	0.588378	0.614138	0.612528	0.591598	0.602868	0.607054	0.606088	0.624764	0.608664	0.621544	0.599970	0.589344	0.601580	0.555855	0.613172	0.602224	0.619290	0.613172	0.615748	0.598682	0.558109	0.615104	0.612206	0.596106	0.615426	0.601258	0.607698	0.628306	0.630238	0.646339	0.614460	0.599004	0.590954	0.593208	0.591920	0.589666	0.600292	0.631848	0.622510	0.599326	0.597716	0.607054	0.614782	0.578396	0.606732	0.599970	0.611240	0.632492	0.579362	0.580006	0.621866	0.571634	0.629916	0.655355	0.558432	0.613172	0.617680	0.602546	0.620256	0.624442	0.601580	0.619612	0.605766	0.619290	0.622510	0.604800	0.623154	0.598682	0.602224	0.617036	0.608342	0.609308	0.610274	0.599004	0.599326	0.611562	0.595140	0.603834	0.603512	0.601580	0.602546	0.600936	0.594496	0.605444	0.599326	0.620578	0.613494
0.607054	0.611884	0.580006	0.605444	0.605444	0.606410	0.608664	0.578718	0.604800	0.598360	0.604478	0.608342	0.603834	0.616070	0.622188	0.617036	0.610274	0.611884	0.612206	0.605122	0.611884	0.600292	0.610274	0.616070	0.613816	0.612206	0.623476	0.616070	0.566160	0.613172	0.608020	0.604800	0.608342	0.585802	0.608020	0.613172	0.608020	0.615426	0.617680	0.614138	0.612850	0.603512	0.593530	0.606088	0.586124	0.610274	0.602868	0.599970	0.624442	0.616714	0.616392	0.611884	0.602224	0.602546	0.547483	0.610596	0.628306	0.616714	0.636356	0.551669	0.679505	0.561007	0.574210	0.615748	0.607376	0.615426	0.620900	0.592242	0.612206	0.611562	0.638933	0.623798	0.611884	0.613816	0.604800	0.583548	0.574532	0.599648	0.622188	0.619612	0.604156	0.599648	0.609630	0.645695	0.597072	0.608986	0.606732	0.601258	0.617680	0.579362	0.602868	0.613816	0.589344	0.609952	0.623798	0.590632	0.619934	0.587090	0.594818	0.620578	0.610596	0.601580	0.622188	0.626374	0.608986	0.611240	0.608342	0.606732	0.612850	0.607698	0.618968	0.610274	0.594818	0.610274	0.592564	0.595140	0.602546	0.607698	0.610918	0.614782	0.602546	0.590632	0.607698	0.591920	0.599648	0.607054	0.612850	0.612850
0.620900	0.619290	0.597072	0.604800	0.604156	0.597394	0.599004	0.588700	0.610918	0.607376	0.607698	0.611562	0.613816	0.605766	0.605766	0.589022	0.588378	0.606410	0.602224	0.609308	0.610918	0.596750	0.599326	0.611240	0.606410	0.614138	0.617358	0.603834	0.585158	0.594818	0.603512	0.605122	0.613816	0.599648	0.618324	0.619934	0.610918	0.617680	0.618002	0.616714	0.603512	0.607698	0.605766	0.622188	0.592886	0.609630	0.584514	0.614782	0.616392	0.621544	0.614138	0.601580	0.600614	0.600292	0.563584	0.603190	0.619290	0.598360	0.632170	0.560364	0.654067	0.550703	0.596106	0.610596	0.626052	0.606732	0.629272	0.617680	0.601580	0.609952	0.652457	0.610274	0.618968	0.616392	0.594818	0.624764	0.583548	0.596428	0.638288	0.569058	0.604800	0.604156	0.600936	0.636356	0.610596	0.599326	0.608020	0.610596	0.647949	0.575820	0.606732	0.606088	0.591276	0.599004	0.594496	0.583226	0.605122	0.585802	0.605766	0.602224	0.595140	0.607054	0.606088	0.611562	0.608342	0.601580	0.620900	0.618324	0.607698	0.617036	0.593530	0.607376	0.620578	0.607698	0.602868	0.616714	0.609308	0.624120	0.624764	0.599970	0.615104	0.610918	0.597394	0.609952	0.605444	0.602546	0.627662	0.606410
0.608342	0.625730	0.594174	0.597716	0.611562	0.593852	0.596106	0.591598	0.608986	0.599004	0.610596	0.607376	0.611240	0.596750	0.603512	0.600936	0.596106	0.598682	0.599648	0.606732	0.608342	0.614460	0.610274	0.599970	0.614460	0.617036	0.607698	0.623476	0.606732	0.595140	0.606088	0.609630	0.608986	0.587090	0.606410	0.613816	0.618646	0.609630	0.614460	0.666947	0.614138	0.608664	0.607376	0.603190	0.581938	0.608986	0.583548	0.588378	0.642475	0.600292	0.615426	0.606732	0.590310	0.594818	0.589666	0.602546	0.630238	0.602224	0.623798	0.575820	0.627984	0.553923	0.585802	0.590632	0.631204	0.614460	0.604478	0.612850	0.622832	0.617358	0.632170	0.617036	0.613494	0.626052	0.597716	0.605444	0.583870	0.598682	0.621222	0.598682	0.609630	0.607376	0.613816	0.616070	0.605444	0.606088	0.596428	0.609952	0.578074	0.593852	0.600936	0.631204	0.622510	0.608986	0.604478	0.580006	0.601580	0.581938	0.599970	0.602868	0.614460	0.606732	0.605766	0.620578	0.607054	0.619934	0.609630	0.608664	0.593208	0.610274	0.615104	0.610918	0.583226	0.608664	0.597072	0.599648	0.600292	0.616714	0.608020	0.615104	0.614460	0.592242	0.612206	0.603834	0.598038	0.599004	0.630560	0.610596
0.606088	0.609952	0.592886	0.614460	0.606410	0.591920	0.613816	0.606410	0.586124	0.597394	0.611562	0.605766	0.593852	0.594174	0.604800	0.611562	0.583226	0.597394	0.610596	0.600936	0.610596	0.606088	0.604800	0.607376	0.609308	0.609630	0.617036	0.627662	0.602868	0.604800	0.605122	0.610918	0.608986	0.600292	0.603834	0.610274	0.611240	0.618002	0.613172	0.628306	0.596106	0.605766	0.602546	0.577752	0.640865	0.596750	0.609952	0.594496	0.601902	0.554245	0.637645	0.593208	0.599970	0.605766	0.565194	0.599970	0.608020	0.601258	0.599970	0.576142	0.610596	0.602868	0.579684	0.574532	0.614782	0.614782	0.599970	0.607698	0.613816	0.608020	0.617680	0.617358	0.617036	0.614138	0.601902	0.609630	0.618968	0.586124	0.613816	0.588378	0.606410	0.604478	0.611240	0.627018	0.606410	0.610274	0.460864	0.604156	0.608020	0.607698	0.603834	0.663083	0.588056	0.604800	0.606088	0.590954	0.611562	0.549415	0.600936	0.608342	0.601902	0.604478	0.607376	0.615748	0.605122	0.615426	0.613494	0.605444	0.608986	0.615748	0.607054	0.609952	0.610274	0.609630	0.603190	0.610918	0.602224	0.622510	0.612528	0.596750	0.624442	0.593852	0.567448	0.599326	0.594496	0.613494	0.613816	0.600292
0.595462	0.610596	0.593530	0.605444	0.613816	0.615104	0.636034	0.618324	0.594818	0.614460	0.616392	0.612206	0.602868	0.598038	0.602224	0.615426	0.613172	0.594818	0.609952	0.600292	0.621222	0.598038	0.597072	0.610274	0.600614	0.603190	0.597394	0.620578	0.621866	0.603512	0.589988	0.603834	0.617358	0.592564	0.598360	0.604156	0.605766	0.597394	0.596750	0.623798	0.610274	0.615104	0.602224	0.588056	0.641509	0.593208	0.608342	0.602224	0.607054	0.595784	0.618968	0.618646	0.667269	0.598038	0.591920	0.601580	0.604800	0.634424	0.587090	0.585158	0.609952	0.611562	0.574210	0.588378	0.624764	0.599648	0.599970	0.599004	0.609308	0.615748	0.649881	0.601258	0.604156	0.602868	0.599970	0.595784	0.601902	0.602224	0.657931	0.603190	0.613494	0.603512	0.613816	0.631526	0.596106	0.607698	0.520113	0.618002	0.626374	0.620256	0.617358	0.649559	0.601902	0.607376	0.596106	0.592564	0.603190	0.581294	0.608664	0.607376	0.610918	0.613816	0.603834	0.613816	0.599648	0.599326	0.600292	0.589344	0.606088	0.603834	0.598682	0.604478	0.597394	0.608664	0.607376	0.610274	0.599004	0.601258	0.601902	0.619290	0.648593	0.625730	0.589988	0.619290	0.611240	0.626374	0.575820	0.598038
0.605766	0.609630	0.571312	0.601902	0.601902	0.618646	0.586446	0.606732	0.592564	0.612206	0.599970	0.601902	0.607376	0.586446	0.603512	0.605444	0.613172	0.610274	0.606732	0.604156	0.613816	0.583226	0.604156	0.602224	0.616392	0.615426	0.605122	0.625086	0.612850	0.617036	0.611562	0.598682	0.613816	0.607376	0.588378	0.611884	0.611562	0.611240	0.609952	0.603512	0.617680	0.615748	0.611562	0.575176	0.620900	0.581616	0.600936	0.596428	0.605122	0.586768	0.614138	0.609952	0.685623	0.597394	0.570346	0.589344	0.605122	0.630882	0.618324	0.593852	0.616714	0.638288	0.564228	0.599326	0.617680	0.600614	0.608986	0.607054	0.616392	0.622188	0.669523	0.607698	0.609952	0.614138	0.609630	0.590632	0.599970	0.610596	0.579684	0.601580	0.605444	0.598360	0.606732	0.615426	0.586768	0.597072	0.518825	0.598682	0.606088	0.603834	0.604478	0.637645	0.598682	0.602224	0.607054	0.607376	0.615748	0.583548	0.619290	0.608342	0.619612	0.621866	0.606088	0.608986	0.615748	0.601258	0.611562	0.618968	0.616070	0.614138	0.608986	0.602868	0.599970	0.606088	0.600292	0.598360	0.602224	0.605766	0.621222	0.580972	0.608342	0.609952	0.577430	0.599004	0.597716	0.582904	0.617680	0.619612
0.603834	0.615104	0.592564	0.595784	0.602224	0.606088	0.576464	0.609952	0.604800	0.600292	0.602224	0.604800	0.611562	0.597394	0.597072	0.616070	0.610596	0.603512	0.589022	0.602224	0.606732	0.597072	0.606410	0.598038	0.624120	0.618646	0.606410	0.627662	0.621544	0.610596	0.611562	0.597716	0.601580	0.613172	0.604800	0.620578	0.622832	0.611562	0.619290	0.627662	0.607698	0.596750	0.589666	0.603190	0.624120	0.613816	0.612528	0.597394	0.612850	0.587090	0.597716	0.597716	0.626696	0.611884	0.605766	0.571312	0.629916	0.599326	0.611240	0.583226	0.597072	0.685301	0.564550	0.601258	0.609308	0.618002	0.605444	0.612206	0.612850	0.602868	0.682725	0.619612	0.604800	0.617680	0.602546	0.595784	0.608664	0.602546	0.601580	0.608020	0.606088	0.611240	0.624120	0.606088	0.574210	0.604800	0.565838	0.596750	0.605766	0.599326	0.628628	0.642153	0.597394	0.614138	0.593208	0.600292	0.608020	0.587090	0.607698	0.599004	0.609952	0.620578	0.612528	0.611240	0.599970	0.609952	0.611562	0.608020	0.609952	0.603834	0.610596	0.611562	0.608342	0.619290	0.611884	0.611562	0.617036	0.597716	0.620900	0.591276	0.600936	0.602868	0.607698	0.613494	0.608986	0.607054	0.622188	0.619612
0.611562	0.609308	0.589022	0.597394	0.606732	0.598682	0.591920	0.601580	0.608020	0.611240	0.604800	0.618324	0.622832	0.607698	0.613494	0.613172	0.609308	0.622510	0.615426	0.603512	0.617680	0.614782	0.610274	0.614138	0.608986	0.616714	0.613172	0.606732	0.618968	0.617358	0.607054	0.607054	0.605766	0.597716	0.619612	0.605766	0.605122	0.606088	0.603190	0.628950	0.606088	0.608986	0.598682	0.602546	0.619290	0.603190	0.608342	0.596428	0.584836	0.605766	0.601258	0.614782	0.638288	0.597716	0.597716	0.619934	0.595140	0.589344	0.679827	0.550703	0.584514	0.622510	0.610596	0.615748	0.607376	0.627984	0.618002	0.604800	0.613494	0.617680	0.661795	0.608342	0.594818	0.599970	0.601580	0.597394	0.594818	0.610274	0.579040	0.597394	0.610596	0.606088	0.606088	0.617036	0.571312	0.591598	0.608020	0.558109	0.605444	0.625408	0.634424	0.646339	0.613172	0.609308	0.615748	0.605122	0.612206	0.609952	0.603512	0.613816	0.618968	0.619934	0.609308	0.621866	0.591598	0.608986	0.609308	0.593852	0.611240	0.597716	0.609952	0.610918	0.601580	0.604800	0.614782	0.597394	0.609952	0.599326	0.595140	0.600936	0.602224	0.607376	0.618324	0.606732	0.611240	0.620256	0.608020	0.605122
0.606088	0.603190	0.601258	0.589666	0.613172	0.610596	0.599648	0.611562	0.612528	0.612528	0.604156	0.602868	0.576464	0.591920	0.599326	0.607376	0.604800	0.601258	0.612528	0.598360	0.616714	0.591598	0.598682	0.604478	0.604800	0.625408	0.613172	0.607698	0.614138	0.593208	0.596106	0.618968	0.609308	0.590632	0.630882	0.615426	0.620900	0.612850	0.610274	0.627018	0.618646	0.607376	0.608664	0.594174	0.618324	0.619934	0.608342	0.580972	0.600936	0.607376	0.591598	0.613494	0.659219	0.597394	0.617036	0.604478	0.585158	0.610918	0.601258	0.591598	0.578396	0.598682	0.590310	0.563262	0.556177	0.573244	0.720078	0.609952	0.615748	0.603190	0.655677	0.616392	0.604478	0.623154	0.615426	0.565194	0.669523	0.602224	0.564872	0.617680	0.613816	0.600614	0.614138	0.615104	0.554567	0.566160	0.591276	0.617358	0.615104	0.619612	0.640543	0.598360	0.608986	0.609630	0.593530	0.584836	0.613816	0.598682	0.606410	0.611562	0.599970	0.618002	0.598038	0.598682	0.599970	0.600936	0.604800	0.607376	0.617680	0.606088	0.615426	0.613172	0.615104	0.614782	0.599970	0.602546	0.629916	0.613816	0.617036	0.611562	0.605122	0.620256	0.612528	0.613172	0.650203	0.600936	0.600936	0.622832
0.609308	0.595462	0.613816	0.591920	0.613816	0.607376	0.611562	0.595784	0.610918	0.598360	0.607054	0.616070	0.588378	0.606410	0.602868	0.606088	0.616070	0.608020	0.613816	0.611240	0.615426	0.605122	0.614460	0.605122	0.604800	0.619612	0.599004	0.607698	0.615104	0.608020	0.610918	0.615104	0.603512	0.615748	0.606088	0.610596	0.610596	0.606088	0.619290	0.620256	0.599326	0.607054	0.606410	0.576464	0.623476	0.578718	0.598682	0.609308	0.584514	0.599004	0.600292	0.607376	0.682725	0.613816	0.617036	0.612528	0.595784	0.614138	0.608342	0.594174	0.594496	0.629272	0.552957	0.600614	0.628628	0.674353	0.613172	0.615748	0.612528	0.607698	0.681437	0.605444	0.606410	0.609630	0.605766	0.609308	0.598360	0.596428	0.581938	0.598682	0.602224	0.595784	0.605122	0.614460	0.516571	0.601580	0.588700	0.578074	0.602868	0.565516	0.524943	0.541043	0.683369	0.816357	0.585802	0.590632	0.608342	0.594174	0.580328	0.624764	0.608342	0.582582	0.597716	0.608342	0.605766	0.613172	0.598682	0.614460	0.619934	0.609308	0.629272	0.601580	0.598038	0.602546	0.601258	0.601902	0.607698	0.608020	0.593852	0.611562	0.605122	0.603512	0.598038	0.602868	0.624120	0.593530	0.601902	0.635390
0.612206	0.547483	0.602868	0.590954	0.597716	0.611884	0.615104	0.598360	0.617680	0.608342	0.609308	0.607054	0.592564	0.599326	0.614782	0.604800	0.616714	0.619612	0.604478	0.628628	0.613816	0.589022	0.610274	0.612528	0.602224	0.621222	0.610918	0.608986	0.652457	0.608020	0.601258	0.602224	0.599970	0.577430	0.614138	0.610596	0.613816	0.636034	0.619612	0.618002	0.599004	0.597716	0.605444	0.589666	0.623476	0.585802	0.605766	0.602224	0.619290	0.608664	0.595462	0.620578	0.613816	0.604800	0.618646	0.597716	0.595784	0.617036	0.615426	0.589666	0.605122	0.629916	0.531061	0.610918	0.599970	0.657287	0.611240	0.607376	0.615748	0.607054	0.670167	0.612528	0.613816	0.604156	0.623798	0.605444	0.594174	0.612206	0.613172	0.604478	0.600936	0.602546	0.607054	0.611884	0.535569	0.593530	0.613172	0.553601	0.608020	0.624764	0.620900	0.614138	0.607698	0.608020	0.609630	0.591920	0.617358	0.601580	0.585158	0.608986	0.618968	0.562940	0.603834	0.614460	0.615748	0.614460	0.611884	0.608342	0.616392	0.608342	0.608986	0.596106	0.619934	0.601902	0.604800	0.601580	0.615104	0.614460	0.580972	0.601580	0.614138	0.604478	0.601902	0.604478	0.609630	0.584192	0.606088	0.605444
0.609952	0.604478	0.618968	0.596106	0.613172	0.620900	0.608020	0.601580	0.609630	0.595784	0.608342	0.598360	0.599004	0.611240	0.605444	0.597394	0.617680	0.618324	0.592564	0.612850	0.609308	0.594496	0.613172	0.606410	0.604156	0.623476	0.598682	0.601580	0.624120	0.613494	0.621222	0.605122	0.625086	0.605122	0.608342	0.624764	0.616392	0.627340	0.610596	0.630882	0.601580	0.601258	0.608342	0.585802	0.633136	0.582582	0.607054	0.602224	0.614782	0.602868	0.604156	0.616070	0.599970	0.610596	0.607698	0.589988	0.634424	0.604478	0.608342	0.553601	0.642475	0.619290	0.542975	0.594818	0.601580	0.619934	0.602546	0.619934	0.614460	0.613816	0.696893	0.604156	0.627984	0.613172	0.623154	0.596106	0.605122	0.599648	0.612528	0.602546	0.602546	0.611562	0.603190	0.594174	0.521401	0.594174	0.627018	0.622510	0.618002	0.607698	0.614138	0.597394	0.607698	0.600936	0.597072	0.571312	0.584192	0.598360	0.619934	0.608020	0.612206	0.582260	0.612528	0.600614	0.613816	0.608342	0.605122	0.616070	0.604156	0.609952	0.618002	0.606732	0.623154	0.614460	0.612528	0.615426	0.610274	0.619934	0.578718	0.603834	0.602546	0.623476	0.608020	0.605444	0.605766	0.603190	0.593208	0.596428
0.611884	0.619290	0.622832	0.608342	0.608342	0.615748	0.621222	0.600936	0.611562	0.603512	0.620900	0.594496	0.596428	0.609308	0.605766	0.607698	0.609308	0.610918	0.591598	0.605122	0.581294	0.581294	0.604800	0.602546	0.622510	0.622188	0.587412	0.598038	0.607698	0.598038	0.610918	0.603512	0.616714	0.618646	0.604800	0.631204	0.616714	0.621222	0.616070	0.608664	0.614782	0.610918	0.618324	0.589666	0.634102	0.585480	0.608664	0.616392	0.608986	0.602868	0.609952	0.585158	0.611562	0.608342	0.604800	0.570024	0.608020	0.589988	0.601580	0.586124	0.622510	0.613494	0.574854	0.619290	0.608342	0.592886	0.599970	0.600614	0.605122	0.600614	0.651169	0.605444	0.612206	0.613172	0.611240	0.591598	0.613172	0.591276	0.618968	0.599648	0.614460	0.614460	0.609952	0.621866	0.538145	0.599326	0.636034	0.608020	0.598360	0.604156	0.610918	0.600936	0.620578	0.605122	0.597716	0.570024	0.620256	0.594496	0.604800	0.596428	0.617358	0.616714	0.599326	0.596428	0.601580	0.595784	0.612206	0.605766	0.607054	0.615104	0.611562	0.600614	0.608986	0.602546	0.602546	0.635713	0.608342	0.614782	0.622832	0.602546	0.609308	0.608020	0.606732	0.619612	0.607376	0.606410	0.621544	0.614460
0.602546	0.609308	0.601258	0.592886	0.589022	0.610918	0.604478	0.612850	0.608342	0.602868	0.617358	0.593208	0.607698	0.610918	0.605766	0.608020	0.618002	0.618002	0.604156	0.616714	0.592886	0.618968	0.599648	0.607376	0.609952	0.630560	0.593208	0.610918	0.625730	0.600614	0.622832	0.609630	0.574854	0.612206	0.594818	0.598038	0.600614	0.600292	0.602868	0.620256	0.608664	0.607698	0.605444	0.570024	0.642153	0.606410	0.595462	0.599648	0.594496	0.608020	0.605766	0.600292	0.610918	0.628628	0.611240	0.616392	0.566482	0.603512	0.613816	0.596750	0.621544	0.590310	0.611562	0.625086	0.608986	0.612206	0.609308	0.614782	0.603512	0.603512	0.630560	0.600936	0.601902	0.609952	0.593530	0.594496	0.611562	0.592242	0.598682	0.591276	0.594818	0.599004	0.601902	0.613172	0.605122	0.595462	0.622510	0.614138	0.603512	0.605444	0.605766	0.554245	0.665659	0.618324	0.606732	0.603834	0.615104	0.606732	0.621222	0.605444	0.614782	0.619290	0.601902	0.595140	0.614138	0.606410	0.609952	0.623154	0.608020	0.609952	0.605444	0.600292	0.602868	0.606088	0.599326	0.624442	0.596106	0.598038	0.618646	0.602868	0.600936	0.613172	0.603512	0.608020	0.608986	0.606732	0.602868	0.610596
0.612528	0.594174	0.597394	0.606088	0.602546	0.618002	0.576786	0.600936	0.614138	0.618324	0.602868	0.595784	0.600614	0.600292	0.603190	0.598038	0.606088	0.619290	0.610274	0.622832	0.606410	0.607054	0.601902	0.613816	0.608342	0.628950	0.599004	0.606732	0.622832	0.604156	0.582904	0.605444	0.610918	0.616070	0.618968	0.590954	0.596428	0.612528	0.616392	0.618646	0.621222	0.607054	0.608664	0.623798	0.607698	0.609308	0.607054	0.605444	0.587412	0.625408	0.604800	0.623798	0.590954	0.605766	0.593530	0.605444	0.607054	0.617680	0.610274	0.582260	0.633780	0.599004	0.614460	0.606732	0.616070	0.612206	0.614782	0.608986	0.614460	0.607054	0.625086	0.620900	0.612206	0.596428	0.594496	0.604800	0.610274	0.609630	0.587412	0.559075	0.603512	0.598682	0.603512	0.580006	0.602868	0.596750	0.608664	0.611240	0.601258	0.598360	0.600936	0.568414	0.651813	0.601580	0.605444	0.598038	0.613816	0.610596	0.593852	0.617036	0.565194	0.617036	0.607054	0.608342	0.615426	0.610918	0.611240	0.565516	0.619612	0.598038	0.616392	0.614460	0.604800	0.607376	0.578718	0.614138	0.612528	0.615748	0.608986	0.568736	0.605444	0.603834	0.597394	0.599648	0.599970	0.596428	0.596106	0.603190
0.610274	0.602546	0.602546	0.617680	0.613494	0.586768	0.578396	0.612528	0.604478	0.614782	0.608020	0.611562	0.622832	0.606732	0.609952	0.602224	0.606732	0.604800	0.633458	0.602546	0.602868	0.608664	0.601258	0.607376	0.604156	0.620256	0.605122	0.600936	0.591276	0.592242	0.607376	0.598682	0.610596	0.601580	0.609630	0.600292	0.602546	0.605766	0.604478	0.608986	0.621866	0.615104	0.616392	0.571956	0.681115	0.612206	0.542009	0.640221	0.598682	0.617358	0.621866	0.646983	0.597716	0.612850	0.610596	0.626374	0.602868	0.599970	0.608020	0.595140	0.619934	0.590632	0.615748	0.610596	0.591920	0.610596	0.599004	0.602546	0.616070	0.598038	0.669201	0.610274	0.606732	0.614782	0.603190	0.553923	0.618324	0.617680	0.600614	0.586446	0.584836	0.612528	0.615748	0.606732	0.618968	0.610596	0.606088	0.615426	0.602224	0.610918	0.613172	0.605122	0.644729	0.613816	0.607376	0.604800	0.614138	0.617680	0.594174	0.610274	0.599970	0.597716	0.612528	0.595140	0.599004	0.614138	0.600936	0.599970	0.609308	0.590632	0.604800	0.607698	0.595462	0.624442	0.600936	0.608664	0.612206	0.606088	0.618324	0.579362	0.613816	0.614782	0.610596	0.595784	0.604800	0.611240	0.612528	0.621544
0.607698	0.608342	0.606410	0.616070	0.617358	0.598038	0.623154	0.602546	0.610596	0.624442	0.591276	0.606732	0.616714	0.604156	0.609630	0.597072	0.598038	0.608986	0.610918	0.592564	0.602546	0.609952	0.592886	0.604156	0.604156	0.609308	0.600614	0.604478	0.592242	0.609308	0.611562	0.597072	0.614138	0.601580	0.631526	0.606732	0.615748	0.616070	0.621544	0.647627	0.610918	0.617680	0.604478	0.617680	0.620256	0.610596	0.618968	0.615426	0.598038	0.615104	0.600292	0.614138	0.599648	0.603190	0.614782	0.608020	0.604478	0.567770	0.607698	0.566160	0.582260	0.601258	0.599970	0.593852	0.589666	0.600936	0.608342	0.596428	0.617680	0.614460	0.629594	0.609952	0.623154	0.581294	0.605766	0.606410	0.605766	0.584514	0.661151	0.606732	0.614782	0.614460	0.612206	0.613816	0.606410	0.550059	0.651491	0.587412	0.616070	0.606410	0.607376	0.613494	0.582582	0.625730	0.621866	0.580006	0.604800	0.587090	0.585802	0.601902	0.601902	0.602546	0.615426	0.607698	0.608342	0.614460	0.600614	0.588700	0.591276	0.592564	0.603834	0.603512	0.607698	0.635068	0.609952	0.609308	0.607376	0.608020	0.618324	0.614138	0.607054	0.611240	0.622832	0.604800	0.621222	0.613172	0.606732	0.625086
0.574210	0.610274	0.660185	0.614460	0.639577	0.597072	0.609630	0.563262	0.615426	0.620256	0.596750	0.603834	0.601258	0.597716	0.603834	0.603834	0.593530	0.604156	0.603190	0.602546	0.599648	0.606410	0.592564	0.616392	0.603190	0.611240	0.606410	0.593208	0.599004	0.605122	0.607054	0.613816	0.615748	0.603512	0.620900	0.619290	0.610918	0.617036	0.613494	0.647305	0.619612	0.601258	0.619290	0.613816	0.604156	0.609308	0.617358	0.605766	0.597716	0.612528	0.604478	0.632814	0.587734	0.594496	0.601580	0.595462	0.609308	0.597072	0.608664	0.608342	0.582582	0.591920	0.610274	0.604800	0.580328	0.605766	0.595462	0.615426	0.625086	0.612850	0.583870	0.606732	0.619612	0.575176	0.610918	0.676929	0.614460	0.571956	0.601902	0.642153	0.590954	0.605444	0.609952	0.616070	0.612850	0.637322	0.623476	0.594496	0.619934	0.605122	0.608664	0.597716	0.592564	0.657931	0.610274	0.566160	0.608986	0.580972	0.595784	0.602868	0.598038	0.597716	0.604156	0.596428	0.606088	0.608986	0.619290	0.617036	0.595784	0.618002	0.605444	0.612528	0.587412	0.612850	0.614460	0.597072	0.612206	0.612206	0.620256	0.611562	0.590954	0.604478	0.596428	0.607376	0.613494	0.615748	0.605444	0.610274
0.646983	0.663727	0.643763	0.607698	0.614460	0.611884	0.597394	0.554889	0.606088	0.603190	0.601258	0.607054	0.609308	0.622510	0.616070	0.634424	0.603834	0.599970	0.609630	0.605122	0.593530	0.619612	0.607054	0.608020	0.625730	0.611240	0.618324	0.616714	0.609308	0.608664	0.613172	0.603190	0.621544	0.615426	0.617036	0.599648	0.611884	0.602546	0.621544	0.604156	0.592564	0.608986	0.602868	0.602868	0.627340	0.606088	0.612528	0.619934	0.586446	0.607054	0.609952	0.595784	0.620578	0.603512	0.609308	0.608986	0.612850	0.591598	0.618968	0.605766	0.564550	0.606732	0.607054	0.619290	0.591598	0.599004	0.628950	0.617680	0.616714	0.629272	0.609630	0.599326	0.637001	0.598360	0.610918	0.617680	0.615748	0.560686	0.617036	0.617358	0.586446	0.596750	0.607054	0.609630	0.544907	0.615426	0.641831	0.600614	0.598360	0.620578	0.619612	0.595784	0.614782	0.600614	0.607376	0.563584	0.602546	0.585158	0.578396	0.616070	0.608664	0.601902	0.617036	0.624120	0.617680	0.605444	0.621544	0.613816	0.597716	0.606732	0.607698	0.609308	0.625730	0.599648	0.615104	0.609952	0.606732	0.607054	0.602868	0.598038	0.601580	0.599970	0.591920	0.604800	0.605444	0.607698	0.610596	0.598360
0.610918	0.601580	0.610274	0.609630	0.606410	0.649881	0.600614	0.606732	0.602546	0.613816	0.599326	0.599326	0.602546	0.602546	0.606088	0.587090	0.608342	0.601580	0.600936	0.599004	0.606088	0.607054	0.616070	0.597716	0.610918	0.617680	0.613494	0.608986	0.608664	0.607376	0.621222	0.611884	0.604156	0.625408	0.614138	0.595784	0.622832	0.612850	0.617680	0.623154	0.609952	0.612528	0.610918	0.593208	0.604156	0.613816	0.605122	0.603512	0.596428	0.599326	0.620578	0.629272	0.603512	0.596750	0.608020	0.594174	0.624120	0.597716	0.615426	0.629916	0.572922	0.614460	0.608342	0.606732	0.580972	0.584514	0.608664	0.613816	0.624442	0.631204	0.629594	0.609952	0.633458	0.601580	0.612206	0.608342	0.614138	0.593208	0.614782	0.614138	0.623798	0.601580	0.602224	0.599970	0.531705	0.613816	0.667591	0.608986	0.605444	0.601258	0.596750	0.586768	0.602224	0.617680	0.598038	0.570990	0.612528	0.586768	0.614138	0.610918	0.598038	0.597394	0.615748	0.605444	0.610918	0.630882	0.587412	0.622832	0.620256	0.605122	0.611240	0.605122	0.609308	0.610274	0.615748	0.606410	0.629272	0.605444	0.614460	0.632814	0.600936	0.608664	0.606410	0.602546	0.609952	0.600614	0.606732	0.581294
0.603834	0.602546	0.609308	0.599004	0.601580	0.637645	0.603512	0.601580	0.595462	0.608342	0.592564	0.592564	0.606410	0.612528	0.607698	0.618324	0.594174	0.605122	0.608342	0.604156	0.608342	0.607054	0.608342	0.607054	0.617680	0.614782	0.617036	0.611884	0.603834	0.643763	0.606410	0.592564	0.615748	0.612850	0.616392	0.605444	0.605122	0.605766	0.617680	0.602868	0.605444	0.614460	0.600292	0.602546	0.608020	0.606410	0.603834	0.593852	0.593208	0.603190	0.608986	0.615426	0.609952	0.604156	0.610918	0.609952	0.611562	0.598360	0.616714	0.611884	0.575820	0.608664	0.602868	0.610918	0.619612	0.602868	0.613816	0.607376	0.608342	0.622188	0.602224	0.611884	0.621544	0.608342	0.608664	0.614138	0.610274	0.583226	0.615748	0.601258	0.653423	0.612850	0.594174	0.606732	0.545551	0.623798	0.669201	0.611240	0.603512	0.612528	0.615104	0.576786	0.615426	0.613172	0.602868	0.580972	0.610918	0.580328	0.611884	0.611240	0.598682	0.612850	0.605444	0.613172	0.609308	0.612206	0.590632	0.609308	0.609308	0.613494	0.599970	0.604478	0.618002	0.608664	0.610596	0.613172	0.604478	0.590632	0.614460	0.609308	0.602868	0.601902	0.592886	0.598360	0.608342	0.600936	0.616070	0.590310
0.603512	0.592886	0.610596	0.616070	0.608020	0.644407	0.607054	0.598360	0.592242	0.601902	0.593208	0.602546	0.590632	0.610274	0.617358	0.624764	0.595462	0.604478	0.610274	0.613172	0.611562	0.606088	0.617358	0.607054	0.610918	0.614460	0.609308	0.608986	0.606088	0.615426	0.602224	0.610918	0.606732	0.614782	0.605444	0.598360	0.612850	0.605444	0.609308	0.631848	0.599326	0.602546	0.601902	0.587734	0.599970	0.606732	0.602868	0.586446	0.596428	0.602224	0.604156	0.633458	0.600936	0.612850	0.615748	0.608342	0.621222	0.604800	0.613494	0.623154	0.607376	0.587734	0.618002	0.603512	0.607054	0.618324	0.610596	0.619612	0.553279	0.659863	0.612528	0.594818	0.639899	0.593852	0.587090	0.605444	0.608664	0.588378	0.595784	0.612850	0.639899	0.605444	0.598038	0.589344	0.601902	0.625408	0.602546	0.602868	0.613816	0.615748	0.620256	0.574854	0.600936	0.616070	0.608986	0.570668	0.605766	0.591598	0.620900	0.612528	0.597394	0.613494	0.612528	0.607376	0.599648	0.610918	0.599648	0.614138	0.616714	0.609308	0.605444	0.611240	0.608342	0.600292	0.617358	0.595784	0.600292	0.605122	0.605122	0.618968	0.553279	0.602868	0.591276	0.589344	0.595462	0.628628	0.614138	0.591920
0.607376	0.620900	0.603834	0.612206	0.611240	0.646661	0.603190	0.593530	0.612850	0.613494	0.612850	0.607698	0.610596	0.611562	0.602868	0.635068	0.591276	0.593852	0.607376	0.599326	0.592564	0.601580	0.605122	0.590310	0.615748	0.604478	0.609308	0.621544	0.604478	0.626052	0.594496	0.602546	0.608342	0.616714	0.608342	0.616070	0.612206	0.610274	0.654711	0.615104	0.609308	0.617680	0.604800	0.617036	0.607376	0.616070	0.602224	0.599648	0.588378	0.616070	0.614782	0.612850	0.611562	0.591920	0.605766	0.615426	0.596428	0.596106	0.605444	0.608664	0.615104	0.594174	0.591598	0.608342	0.608986	0.622188	0.595140	0.591276	0.602546	0.682081	0.637322	0.599970	0.562940	0.652779	0.589344	0.613816	0.597072	0.585158	0.605766	0.622510	0.649237	0.572600	0.600936	0.603512	0.611562	0.601580	0.601580	0.602546	0.599648	0.614782	0.602868	0.604478	0.592242	0.602224	0.621544	0.580972	0.603190	0.586124	0.598360	0.613494	0.585158	0.602868	0.602224	0.619290	0.603834	0.618646	0.602546	0.619612	0.618324	0.603834	0.606732	0.617680	0.610596	0.609630	0.643763	0.610596	0.598682	0.618646	0.607054	0.620578	0.559075	0.603512	0.629594	0.606410	0.599004	0.627984	0.607376	0.589022
0.611562	0.621544	0.609952	0.616714	0.622188	0.637001	0.599970	0.592564	0.627018	0.612528	0.617358	0.612528	0.617358	0.601580	0.603512	0.610274	0.597716	0.608986	0.608986	0.608986	0.610596	0.595140	0.608342	0.583870	0.598360	0.599004	0.597072	0.620900	0.613494	0.611884	0.569058	0.602546	0.607698	0.606732	0.605766	0.604156	0.612850	0.608342	0.658575	0.619934	0.610274	0.622832	0.609308	0.610918	0.609630	0.628950	0.599970	0.543941	0.594496	0.620578	0.619934	0.618968	0.609630	0.597072	0.593208	0.612528	0.600292	0.601580	0.607376	0.612850	0.609952	0.601580	0.591598	0.642797	0.619612	0.614460	0.590954	0.584192	0.621866	0.615748	0.617358	0.601580	0.629594	0.608342	0.604478	0.616714	0.614782	0.589344	0.600614	0.616070	0.633136	0.614138	0.603190	0.617680	0.614460	0.606410	0.605122	0.607376	0.604156	0.621544	0.602868	0.602546	0.585802	0.604800	0.615426	0.619934	0.597716	0.554889	0.599970	0.608020	0.598360	0.602546	0.596428	0.599648	0.602868	0.613816	0.602546	0.607054	0.608020	0.615748	0.604156	0.614460	0.602546	0.608986	0.612850	0.617680	0.591920	0.620578	0.629594	0.607376	0.614782	0.608986	0.618646	0.614782	0.598360	0.604800	0.611240	0.602546
0.597072	0.617036	0.617680	0.611884	0.618002	0.664049	0.610918	0.593852	0.615748	0.595784	0.612206	0.603190	0.608986	0.605766	0.611562	0.595140	0.615748	0.610918	0.599970	0.605122	0.597716	0.589666	0.608020	0.604478	0.610918	0.597716	0.590954	0.616714	0.606410	0.615104	0.589344	0.613494	0.594496	0.609308	0.608020	0.602546	0.610596	0.608020	0.651169	0.631848	0.601902	0.619290	0.617036	0.611562	0.609630	0.619290	0.604156	0.597394	0.602868	0.608020	0.613172	0.642475	0.608664	0.615104	0.594174	0.602224	0.586446	0.607698	0.602546	0.618324	0.606410	0.610918	0.580328	0.597716	0.612528	0.615426	0.579362	0.576142	0.577108	0.629916	0.612206	0.605444	0.603834	0.612528	0.599648	0.603190	0.619934	0.621544	0.596428	0.612850	0.646017	0.612850	0.613172	0.606410	0.616714	0.631204	0.609308	0.620256	0.606410	0.609952	0.610918	0.599004	0.590954	0.615426	0.589344	0.604800	0.629594	0.595462	0.593530	0.606732	0.590632	0.598682	0.603834	0.592242	0.602868	0.619612	0.620900	0.611240	0.613494	0.637645	0.618968	0.601902	0.613816	0.613172	0.611884	0.610918	0.612528	0.608342	0.628306	0.598360	0.651813	0.613172	0.609630	0.604800	0.619290	0.599970	0.602546	0.593208
0.595784	0.595140	0.601258	0.598360	0.603512	0.644407	0.601258	0.603190	0.603190	0.589666	0.613816	0.604478	0.598360	0.598682	0.604478	0.594818	0.617358	0.612528	0.618646	0.608342	0.605444	0.616070	0.603512	0.608986	0.609630	0.625408	0.602546	0.610918	0.606410	0.625408	0.583226	0.602868	0.593530	0.595462	0.609308	0.603512	0.593208	0.610918	0.637645	0.621222	0.599004	0.607376	0.620578	0.602546	0.583226	0.603512	0.606410	0.596750	0.587090	0.603190	0.600936	0.664049	0.618968	0.604478	0.610918	0.542331	0.589666	0.609952	0.615104	0.610918	0.608020	0.612206	0.615748	0.620256	0.616714	0.625408	0.583226	0.557787	0.596106	0.608986	0.607698	0.569380	0.616070	0.610274	0.619290	0.570024	0.607698	0.605122	0.586768	0.590632	0.657931	0.569380	0.604800	0.608020	0.607376	0.612850	0.611562	0.600936	0.608020	0.610274	0.605444	0.609308	0.610918	0.619612	0.590632	0.603834	0.617680	0.592886	0.607698	0.602546	0.600936	0.603834	0.617358	0.620900	0.604800	0.603190	0.610918	0.618646	0.615426	0.627662	0.603834	0.583870	0.607054	0.592886	0.598360	0.609630	0.570346	0.601258	0.608020	0.585480	0.599004	0.589666	0.597394	0.611562	0.619934	0.599004	0.615426	0.613494
0.601902	0.584192	0.603834	0.603190	0.606410	0.634424	0.605444	0.600936	0.602546	0.607698	0.609952	0.603834	0.608986	0.606088	0.606732	0.596106	0.613494	0.622510	0.615104	0.605766	0.612850	0.609630	0.609630	0.597072	0.611562	0.615104	0.599326	0.609308	0.615104	0.624120	0.597716	0.623154	0.596106	0.608342	0.611562	0.596428	0.606410	0.604800	0.644407	0.619934	0.598682	0.605766	0.609630	0.599326	0.608342	0.611240	0.594818	0.588700	0.567126	0.590310	0.609630	0.684657	0.606088	0.611884	0.613172	0.593530	0.614782	0.608342	0.610274	0.624120	0.604478	0.629272	0.618002	0.605766	0.621544	0.603512	0.590632	0.570990	0.595140	0.599648	0.621222	0.604156	0.603834	0.628950	0.608342	0.595462	0.614460	0.586768	0.590632	0.617358	0.610596	0.534925	0.607376	0.588378	0.609308	0.611240	0.592564	0.617036	0.609630	0.613494	0.617036	0.605122	0.615748	0.612850	0.588378	0.601258	0.586446	0.601580	0.613172	0.615748	0.600614	0.617036	0.600614	0.615748	0.612528	0.614782	0.609952	0.605766	0.605122	0.615426	0.610274	0.592564	0.606088	0.607376	0.600936	0.614138	0.589022	0.608664	0.606088	0.593530	0.603190	0.604156	0.597072	0.608986	0.611884	0.606732	0.608342	0.613494
0.609308	0.579362	0.611562	0.610596	0.605122	0.646983	0.606732	0.605444	0.594496	0.604478	0.628950	0.594174	0.609952	0.600614	0.603512	0.598360	0.610596	0.603834	0.597394	0.598038	0.600614	0.607054	0.600614	0.606410	0.603834	0.627662	0.588378	0.606088	0.611240	0.620256	0.611562	0.604478	0.603190	0.618646	0.617680	0.610596	0.612206	0.618646	0.657609	0.613816	0.603512	0.610274	0.607376	0.612850	0.599326	0.619612	0.607054	0.609630	0.562940	0.604156	0.615426	0.661473	0.583870	0.591920	0.614460	0.508521	0.520757	0.604156	0.618646	0.590632	0.612206	0.615426	0.602224	0.599648	0.603512	0.606088	0.634424	0.609952	0.602546	0.613494	0.612528	0.606088	0.599326	0.624442	0.616392	0.613172	0.603512	0.620578	0.599648	0.613494	0.606088	0.580972	0.607698	0.608020	0.616392	0.617358	0.599648	0.612528	0.597716	0.599326	0.622832	0.637645	0.592242	0.599004	0.588056	0.598038	0.632814	0.591276	0.617680	0.629272	0.615104	0.580650	0.618002	0.600614	0.608342	0.607376	0.615104	0.622188	0.610596	0.615426	0.621866	0.605766	0.610918	0.608020	0.602868	0.616070	0.598682	0.611562	0.608986	0.627662	0.591920	0.622510	0.598038	0.612850	0.608020	0.608664	0.599648	0.601902
0.614460	0.579362	0.630560	0.616392	0.612528	0.646661	0.611240	0.616070	0.615748	0.612206	0.607376	0.608342	0.605444	0.614460	0.614460	0.599970	0.594818	0.611240	0.604800	0.581938	0.602224	0.612528	0.610274	0.594496	0.608342	0.574210	0.624764	0.599004	0.622188	0.610274	0.604156	0.594496	0.605444	0.618646	0.614138	0.597072	0.617036	0.619934	0.615426	0.644407	0.603512	0.614138	0.618002	0.606410	0.611884	0.618002	0.611562	0.615426	0.608664	0.595462	0.629916	0.665015	0.590632	0.597072	0.609630	0.469880	0.623154	0.601258	0.605766	0.610274	0.659541	0.608020	0.610596	0.599970	0.591276	0.598038	0.514317	0.654067	0.581616	0.601258	0.627018	0.603512	0.608664	0.629916	0.613172	0.613816	0.601258	0.609952	0.623798	0.607376	0.618002	0.574532	0.609952	0.608664	0.610918	0.606410	0.617358	0.615426	0.600614	0.586124	0.612528	0.605444	0.636034	0.614138	0.561330	0.592886	0.615104	0.597716	0.601258	0.601580	0.603834	0.585480	0.598038	0.598360	0.599970	0.602546	0.611562	0.611562	0.605766	0.606410	0.609308	0.615104	0.608986	0.611884	0.604800	0.613172	0.613172	0.608020	0.606732	0.634424	0.601902	0.615748	0.607698	0.605444	0.612850	0.627018	0.600614	0.605122
0.623154	0.594818	0.606410	0.609630	0.597072	0.627018	0.607376	0.622510	0.614138	0.621866	0.609952	0.602868	0.597072	0.599004	0.599648	0.608342	0.592242	0.609952	0.603190	0.605122	0.602224	0.607054	0.603512	0.599970	0.602224	0.567770	0.608664	0.615104	0.620578	0.618002	0.607054	0.603512	0.618324	0.600292	0.611884	0.614782	0.611240	0.610596	0.613494	0.643119	0.616070	0.620578	0.603512	0.614138	0.609630	0.616714	0.608986	0.608986	0.596750	0.586124	0.596750	0.642797	0.558753	0.597394	0.606088	0.469880	0.679505	0.600292	0.609308	0.608020	0.686589	0.603512	0.599648	0.606088	0.612206	0.590310	0.523977	0.686911	0.572600	0.613494	0.610918	0.598038	0.608664	0.611240	0.617680	0.617036	0.592242	0.612528	0.624120	0.600292	0.617358	0.588056	0.610918	0.612528	0.601258	0.603512	0.644407	0.588700	0.606732	0.604156	0.608986	0.602546	0.611884	0.585802	0.559398	0.604156	0.593530	0.577752	0.589344	0.610596	0.599648	0.605766	0.593208	0.620578	0.605444	0.593852	0.614138	0.610274	0.610596	0.610274	0.567770	0.607376	0.613494	0.619290	0.605766	0.608664	0.611562	0.613494	0.620900	0.613494	0.598038	0.609308	0.603190	0.609630	0.626374	0.606732	0.611240	0.612528
0.612528	0.615748	0.636679	0.625408	0.610596	0.615104	0.610596	0.611884	0.601580	0.605444	0.611240	0.599004	0.612528	0.609308	0.599648	0.602224	0.595140	0.605444	0.623154	0.598360	0.599648	0.609308	0.612206	0.613494	0.601902	0.580328	0.607054	0.598682	0.615748	0.620578	0.607698	0.611240	0.610274	0.616392	0.604156	0.616392	0.617036	0.606410	0.625730	0.646661	0.617358	0.614138	0.618002	0.576464	0.603190	0.615426	0.611562	0.613172	0.513995	0.649237	0.608020	0.616070	0.551669	0.621544	0.607054	0.526231	0.600614	0.600614	0.603512	0.606732	0.679827	0.608342	0.603512	0.608020	0.608342	0.593530	0.599004	0.595140	0.609630	0.593852	0.613494	0.629594	0.593852	0.620900	0.613494	0.623798	0.600292	0.610274	0.618324	0.617680	0.604156	0.590954	0.605766	0.604800	0.615426	0.611240	0.621866	0.606088	0.604156	0.584192	0.610274	0.606088	0.606410	0.596106	0.562296	0.601258	0.604800	0.583870	0.581938	0.612528	0.582582	0.614460	0.599970	0.612528	0.600936	0.606732	0.600292	0.611240	0.609630	0.612850	0.580006	0.612528	0.613816	0.629594	0.604800	0.611562	0.614138	0.602868	0.618646	0.626052	0.595784	0.609952	0.605444	0.608986	0.632814	0.613816	0.605444	0.616392
0.605766	0.613816	0.598682	0.598038	0.600292	0.617358	0.614460	0.614138	0.607698	0.593530	0.606410	0.572278	0.588056	0.600614	0.602224	0.612528	0.601258	0.630882	0.627340	0.608342	0.602868	0.597072	0.607376	0.597072	0.606088	0.627018	0.616714	0.612206	0.605122	0.622510	0.609308	0.621866	0.597394	0.624120	0.603512	0.614138	0.614460	0.608342	0.618968	0.623154	0.611884	0.605122	0.606732	0.610274	0.599970	0.621866	0.606732	0.616714	0.484371	0.615426	0.586768	0.636679	0.606410	0.599648	0.601902	0.535569	0.609630	0.603512	0.611240	0.609952	0.668235	0.623476	0.600292	0.613816	0.613172	0.604800	0.605766	0.585480	0.583870	0.597072	0.610274	0.665015	0.617680	0.612528	0.622832	0.628628	0.599326	0.605444	0.617358	0.609952	0.595140	0.607054	0.601258	0.610274	0.603190	0.609308	0.624120	0.595462	0.594818	0.579040	0.599326	0.628628	0.622510	0.594818	0.575820	0.606410	0.602868	0.604800	0.599648	0.608020	0.603512	0.606088	0.600936	0.621222	0.604156	0.621222	0.612528	0.610596	0.617358	0.605766	0.615104	0.608986	0.605122	0.617358	0.609308	0.582260	0.608020	0.608986	0.602224	0.639255	0.616714	0.601580	0.612528	0.601902	0.611240	0.602224	0.604156	0.588700
0.605766	0.600614	0.599648	0.580972	0.594496	0.600936	0.607054	0.606410	0.602868	0.618002	0.600936	0.590954	0.612850	0.606410	0.608664	0.610918	0.606088	0.609952	0.616392	0.604478	0.613172	0.613494	0.610596	0.615104	0.612206	0.618646	0.609308	0.612206	0.590954	0.612850	0.612528	0.609952	0.609952	0.606410	0.600936	0.604156	0.599970	0.589022	0.608342	0.616714	0.610596	0.602546	0.602224	0.579684	0.599004	0.595140	0.601258	0.614782	0.531383	0.612528	0.615748	0.614460	0.646661	0.606732	0.596106	0.551347	0.598038	0.606732	0.616714	0.611884	0.668557	0.627340	0.600936	0.626374	0.609952	0.608020	0.616070	0.627018	0.601902	0.601902	0.611240	0.642153	0.616714	0.595784	0.611240	0.621222	0.602868	0.606088	0.624442	0.598038	0.603834	0.605766	0.583226	0.607054	0.608020	0.604800	0.638288	0.600936	0.611562	0.593530	0.603834	0.609630	0.616392	0.598682	0.593530	0.617680	0.613494	0.604800	0.644729	0.607376	0.608342	0.598682	0.602546	0.609630	0.610596	0.605122	0.623476	0.616714	0.609630	0.601258	0.599004	0.591276	0.610596	0.605444	0.606732	0.604800	0.611562	0.608986	0.603512	0.607376	0.601580	0.563262	0.597072	0.605444	0.605444	0.616392	0.614138	0.605766
0.598682	0.604478	0.615104	0.608020	0.588378	0.602868	0.614460	0.608342	0.614138	0.606732	0.604478	0.613816	0.603512	0.609308	0.615426	0.607698	0.598360	0.609952	0.605444	0.601258	0.613494	0.599970	0.614782	0.621544	0.608664	0.616070	0.594174	0.609308	0.585802	0.572922	0.597716	0.614460	0.587412	0.608020	0.604156	0.603190	0.615104	0.604478	0.607054	0.627662	0.613494	0.599326	0.605444	0.596750	0.592886	0.609630	0.605444	0.624120	0.501115	0.609952	0.617036	0.609952	0.672099	0.598360	0.614782	0.577752	0.616070	0.614138	0.617036	0.623798	0.651813	0.605766	0.590954	0.601580	0.608986	0.607376	0.593208	0.616392	0.649237	0.625730	0.618324	0.630560	0.584514	0.593530	0.602868	0.619612	0.603190	0.604478	0.622510	0.604156	0.597394	0.595784	0.605444	0.608342	0.607054	0.614460	0.619612	0.614460	0.609308	0.616392	0.605122	0.612850	0.632170	0.612206	0.598038	0.602224	0.624120	0.601580	0.608664	0.615748	0.604800	0.600936	0.603834	0.610274	0.593530	0.599004	0.615104	0.607376	0.601580	0.601258	0.598682	0.593530	0.598360	0.600614	0.608986	0.613816	0.595462	0.609308	0.604800	0.614460	0.612206	0.569380	0.607376	0.617036	0.615426	0.621544	0.618968	0.614460
0.601902	0.624120	0.614460	0.611240	0.603512	0.613494	0.620900	0.622510	0.598038	0.625730	0.613172	0.609630	0.618324	0.607054	0.608986	0.624442	0.594174	0.606732	0.609952	0.582904	0.610918	0.602224	0.607698	0.632492	0.587734	0.604478	0.570990	0.600292	0.587412	0.612528	0.596750	0.605122	0.608664	0.594818	0.601580	0.613172	0.609308	0.618968	0.612528	0.615748	0.623154	0.610918	0.608020	0.612850	0.574532	0.608986	0.629272	0.612206	0.488879	0.615426	0.601258	0.611884	0.615748	0.582904	0.600936	0.587412	0.592886	0.606410	0.598038	0.610596	0.674997	0.607698	0.601258	0.603190	0.605444	0.605444	0.601902	0.601258	0.620578	0.603834	0.575820	0.620578	0.614782	0.607376	0.616392	0.606088	0.614782	0.615104	0.617358	0.611240	0.615104	0.588056	0.624764	0.612206	0.598682	0.648593	0.609308	0.614460	0.607698	0.600292	0.595140	0.612206	0.608986	0.589666	0.609308	0.598682	0.636356	0.607376	0.585802	0.613172	0.606088	0.590632	0.601258	0.595462	0.596106	0.600614	0.600936	0.606410	0.611884	0.599326	0.616070	0.592886	0.601580	0.630882	0.608020	0.615104	0.607054	0.612850	0.621866	0.616070	0.617680	0.609630	0.605766	0.605766	0.614460	0.602546	0.598038	0.619612
0.613816	0.601580	0.614460	0.612206	0.597716	0.608986	0.597394	0.612206	0.603190	0.579040	0.600614	0.606732	0.606088	0.603834	0.605444	0.601580	0.590632	0.610596	0.603190	0.593208	0.599326	0.606088	0.611240	0.614460	0.594174	0.607698	0.617036	0.605444	0.609308	0.599970	0.610918	0.607054	0.606732	0.611562	0.613494	0.616392	0.616070	0.616714	0.609308	0.630560	0.612206	0.598360	0.612206	0.606732	0.604800	0.608342	0.609630	0.624764	0.549415	0.596106	0.579040	0.612206	0.610274	0.687233	0.599648	0.598682	0.539755	0.592886	0.602546	0.604478	0.674031	0.613494	0.613172	0.599326	0.618324	0.616714	0.613816	0.617680	0.621866	0.590632	0.615748	0.470524	0.689809	0.622832	0.607054	0.613172	0.614460	0.608342	0.622188	0.597716	0.597716	0.596428	0.611562	0.608020	0.618324	0.601258	0.602546	0.605444	0.597394	0.592886	0.580328	0.585480	0.630238	0.607376	0.592564	0.593852	0.633780	0.591598	0.585802	0.593852	0.610918	0.613494	0.601902	0.609952	0.613816	0.596428	0.613494	0.601258	0.607698	0.629594	0.622832	0.581294	0.612206	0.612850	0.600936	0.614460	0.588378	0.611562	0.605122	0.609308	0.616392	0.611240	0.589344	0.608664	0.599326	0.608986	0.596750	0.605122
0.621222	0.614460	0.611240	0.607054	0.588378	0.616392	0.597394	0.606088	0.615104	0.580650	0.609952	0.613172	0.601580	0.608342	0.603190	0.607376	0.597394	0.606732	0.599970	0.600292	0.591920	0.603190	0.603834	0.621544	0.552957	0.608986	0.606088	0.603512	0.597394	0.608986	0.620578	0.603512	0.606088	0.611884	0.610274	0.607698	0.616070	0.615104	0.617358	0.626696	0.612528	0.617358	0.606410	0.601902	0.599004	0.616392	0.600614	0.641509	0.411276	0.640865	0.787698	0.614782	0.602868	0.645373	0.550381	0.595462	0.577430	0.600614	0.605122	0.608020	0.656965	0.601580	0.597072	0.604800	0.604156	0.585480	0.602546	0.604478	0.585158	0.606088	0.616070	0.610596	0.596750	0.634746	0.611240	0.589988	0.613816	0.614782	0.623476	0.610596	0.608020	0.595784	0.618002	0.618002	0.590954	0.598360	0.611240	0.601580	0.627340	0.601580	0.593530	0.620578	0.599970	0.623476	0.585480	0.572922	0.637967	0.588700	0.612528	0.598038	0.600936	0.608986	0.599326	0.595784	0.596750	0.604156	0.604156	0.609952	0.609630	0.614782	0.615426	0.596428	0.619612	0.621222	0.610274	0.606410	0.618968	0.616070	0.595140	0.616714	0.615748	0.610918	0.623476	0.607698	0.604800	0.610596	0.597716	0.602868
0.613816	0.590954	0.611562	0.619290	0.605122	0.603512	0.616714	0.613494	0.598682	0.607054	0.599004	0.597394	0.606732	0.597072	0.606410	0.609630	0.605766	0.612206	0.601902	0.581616	0.589666	0.595140	0.596428	0.607376	0.596750	0.609308	0.619612	0.607376	0.612206	0.602224	0.607698	0.601902	0.603512	0.598360	0.623798	0.605766	0.610918	0.618968	0.621544	0.629916	0.615426	0.625086	0.620578	0.601258	0.601580	0.612850	0.597716	0.604156	0.555211	0.585158	0.586446	0.625086	0.612850	0.639255	0.597072	0.598038	0.521079	0.586768	0.589988	0.613494	0.688521	0.612850	0.620256	0.611562	0.604156	0.568092	0.630560	0.616392	0.609308	0.637001	0.601258	0.617680	0.498217	0.704621	0.614782	0.592886	0.608664	0.612850	0.624120	0.619612	0.606088	0.594818	0.599004	0.623476	0.627984	0.609952	0.603512	0.605122	0.605122	0.595462	0.605122	0.599970	0.601258	0.607376	0.605444	0.599970	0.626696	0.587412	0.610274	0.599970	0.603512	0.592564	0.603834	0.612850	0.612528	0.612206	0.613816	0.612528	0.613816	0.610274	0.601580	0.619290	0.609630	0.604800	0.609952	0.618324	0.611562	0.620256	0.604478	0.610596	0.608020	0.600292	0.628628	0.603834	0.618968	0.608342	0.599326	0.607698
0.616714	0.599326	0.601258	0.613816	0.612206	0.592242	0.609952	0.609630	0.606410	0.609308	0.604156	0.603834	0.608664	0.597716	0.603512	0.604156	0.598038	0.594818	0.609630	0.606088	0.618324	0.590954	0.607376	0.609952	0.601258	0.602546	0.618324	0.605122	0.620900	0.617680	0.616070	0.622510	0.620256	0.602868	0.618646	0.600936	0.615104	0.606732	0.621222	0.627018	0.609630	0.608986	0.605766	0.608664	0.599970	0.608020	0.600936	0.603834	0.577752	0.586446	0.607054	0.601580	0.619290	0.606732	0.607376	0.591276	0.547483	0.612528	0.601258	0.652779	0.650847	0.603190	0.617036	0.602868	0.601902	0.589988	0.624120	0.608342	0.621222	0.626696	0.600936	0.623798	0.590632	0.606410	0.613172	0.600614	0.597394	0.604800	0.624442	0.617680	0.614460	0.597072	0.641187	0.600936	0.645373	0.594174	0.588056	0.619290	0.609952	0.599648	0.616714	0.608020	0.613494	0.607376	0.610596	0.594496	0.623798	0.596106	0.593852	0.599970	0.606088	0.597072	0.623476	0.612850	0.631526	0.615426	0.614138	0.616392	0.611562	0.609630	0.589988	0.608020	0.606088	0.584514	0.612528	0.608664	0.614138	0.608342	0.601258	0.600936	0.609630	0.611562	0.607376	0.594174	0.608986	0.608342	0.589988	0.612850
0.616714	0.582904	0.603834	0.607054	0.609630	0.601580	0.607054	0.596106	0.611884	0.609308	0.593852	0.609952	0.601902	0.607054	0.610274	0.601902	0.602546	0.612206	0.604478	0.607054	0.608342	0.575820	0.608664	0.616392	0.601258	0.617358	0.615104	0.608020	0.624442	0.614138	0.612528	0.619612	0.611884	0.608664	0.612850	0.591276	0.611562	0.608342	0.610596	0.635390	0.616070	0.612850	0.599648	0.603190	0.599648	0.612528	0.586768	0.603834	0.594496	0.586446	0.599970	0.592564	0.603190	0.663405	0.598360	0.599004	0.597394	0.618646	0.629594	0.649237	0.613816	0.608664	0.613494	0.612206	0.595140	0.584514	0.618646	0.616070	0.631204	0.603512	0.583548	0.615104	0.600936	0.597716	0.629594	0.602868	0.599004	0.618002	0.607376	0.622510	0.589988	0.526231	0.615426	0.587090	0.643441	0.606732	0.595140	0.596106	0.611884	0.600292	0.604156	0.608664	0.602868	0.601902	0.606732	0.594818	0.619934	0.598360	0.607376	0.599004	0.614460	0.570990	0.621866	0.618968	0.617358	0.617680	0.607698	0.621866	0.610918	0.610274	0.602868	0.623154	0.618646	0.612528	0.593530	0.605444	0.618968	0.613172	0.597394	0.602224	0.605766	0.602224	0.624120	0.599004	0.612206	0.609308	0.610918	0.608020
0.600614	0.571312	0.607698	0.604156	0.615748	0.597394	0.599648	0.606732	0.595140	0.609308	0.596106	0.606732	0.611240	0.626696	0.606410	0.618324	0.616070	0.599004	0.614138	0.615426	0.604800	0.607376	0.607698	0.615426	0.592886	0.615426	0.610596	0.616714	0.618968	0.608020	0.620900	0.610596	0.599970	0.611240	0.606732	0.604478	0.617358	0.609630	0.604156	0.621222	0.605766	0.619934	0.596428	0.597394	0.609630	0.617680	0.575498	0.608664	0.596750	0.573244	0.598360	0.604800	0.606732	0.676607	0.596750	0.600936	0.612850	0.614138	0.617036	0.618324	0.607376	0.614460	0.620900	0.618324	0.591276	0.589666	0.604478	0.590310	0.639577	0.586446	0.622832	0.606088	0.614138	0.609308	0.615748	0.609308	0.596428	0.602224	0.607698	0.592564	0.588700	0.489845	0.612850	0.608020	0.627018	0.616714	0.592886	0.609308	0.606088	0.611562	0.611240	0.599004	0.618002	0.615748	0.615748	0.605444	0.611562	0.634102	0.601258	0.624120	0.583548	0.584514	0.611240	0.614782	0.613172	0.590310	0.599326	0.619612	0.599970	0.593530	0.603834	0.618324	0.613816	0.599004	0.595784	0.604478	0.606732	0.612528	0.599004	0.610918	0.598682	0.610918	0.638611	0.592564	0.606732	0.614460	0.601258	0.613172
0.608664	0.607054	0.615104	0.620578	0.611884	0.609952	0.614138	0.608342	0.610596	0.608664	0.590310	0.615104	0.606088	0.613172	0.619612	0.609630	0.611240	0.579684	0.600614	0.607054	0.624442	0.595784	0.610274	0.608986	0.576464	0.605122	0.599326	0.602224	0.627662	0.580972	0.596428	0.608986	0.590632	0.611562	0.612528	0.606732	0.609630	0.608986	0.614138	0.619612	0.595462	0.616714	0.604156	0.601902	0.614460	0.621222	0.587090	0.612850	0.602868	0.638611	0.599004	0.600936	0.586124	0.676607	0.592886	0.603512	0.612206	0.604156	0.616714	0.618968	0.603834	0.612528	0.613816	0.605122	0.593852	0.564228	0.590632	0.593852	0.603512	0.596428	0.622832	0.604800	0.612206	0.602546	0.609952	0.609952	0.603512	0.600936	0.610274	0.613494	0.601258	0.542653	0.613494	0.626374	0.618324	0.635068	0.603834	0.618968	0.596750	0.612850	0.611240	0.597394	0.615104	0.615426	0.603512	0.605766	0.617036	0.610596	0.619612	0.597072	0.599648	0.572278	0.586768	0.615748	0.609308	0.589988	0.607376	0.600936	0.603512	0.601580	0.603834	0.594818	0.611884	0.597072	0.609630	0.618324	0.612206	0.623154	0.609952	0.612850	0.601258	0.609308	0.627984	0.614460	0.609308	0.615104	0.614138	0.615104
0.598682	0.593208	0.595462	0.597394	0.614782	0.621544	0.603834	0.616070	0.603834	0.599004	0.601258	0.604800	0.604156	0.612850	0.606088	0.615426	0.618324	0.574210	0.603834	0.606410	0.607054	0.610918	0.600614	0.623476	0.600292	0.618968	0.596106	0.616070	0.615748	0.592886	0.609952	0.604156	0.609308	0.617358	0.614460	0.615748	0.608342	0.604800	0.615748	0.615748	0.593530	0.601258	0.604478	0.595784	0.606410	0.603512	0.584192	0.626696	0.567448	0.567448	0.698825	0.606088	0.593530	0.680149	0.581294	0.616392	0.554889	0.662439	0.615104	0.636356	0.602224	0.613494	0.616714	0.612850	0.612206	0.583870	0.588378	0.625086	0.599648	0.608342	0.618968	0.601902	0.612850	0.609308	0.594174	0.612206	0.612528	0.605766	0.602868	0.603512	0.588700	0.562296	0.601902	0.603834	0.627018	0.647305	0.603512	0.613172	0.599326	0.609308	0.596428	0.600292	0.609630	0.612206	0.589344	0.612850	0.624764	0.598682	0.629272	0.611562	0.614782	0.620900	0.594174	0.614460	0.620900	0.605766	0.607698	0.604156	0.602224	0.603834	0.604800	0.613494	0.630238	0.603834	0.600936	0.615748	0.611240	0.599970	0.580006	0.594174	0.593530	0.620900	0.582582	0.611240	0.603512	0.614138	0.606732	0.608986
0.607698	0.600292	0.605122	0.609952	0.612528	0.619934	0.606732	0.602224	0.603834	0.597072	0.594818	0.631848	0.597394	0.611884	0.629594	0.629272	0.614138	0.612850	0.591598	0.612206	0.602546	0.597072	0.602546	0.616070	0.608664	0.613816	0.615748	0.622188	0.639255	0.583226	0.603190	0.615104	0.602546	0.612206	0.588056	0.622832	0.600936	0.611562	0.599648	0.627340	0.604800	0.610918	0.613172	0.583226	0.601580	0.613816	0.570346	0.631848	0.601902	0.632492	0.593208	0.632492	0.606088	0.617358	0.613172	0.632170	0.618324	0.607698	0.614782	0.652779	0.614460	0.603512	0.626696	0.613816	0.614782	0.594174	0.593208	0.629272	0.606088	0.606088	0.612528	0.601258	0.612850	0.608986	0.606088	0.609630	0.599970	0.611562	0.599970	0.604156	0.590632	0.605766	0.603834	0.595140	0.616714	0.686589	0.614782	0.598360	0.610274	0.609952	0.586768	0.605766	0.600292	0.599004	0.614138	0.605122	0.625730	0.608986	0.595140	0.621866	0.611884	0.608664	0.608020	0.601258	0.594496	0.604478	0.612528	0.599648	0.606088	0.599648	0.616392	0.609630	0.613172	0.591598	0.605766	0.600936	0.605444	0.605122	0.587090	0.611562	0.596106	0.624120	0.598360	0.608020	0.618002	0.598038	0.599648	0.597072
0.603190	0.618968	0.606732	0.609308	0.612850	0.594818	0.623798	0.613816	0.596106	0.635068	0.618646	0.619612	0.608664	0.613172	0.605122	0.626374	0.605444	0.596750	0.604478	0.607698	0.617036	0.593530	0.583226	0.624764	0.599326	0.593208	0.597394	0.615748	0.592564	0.599648	0.600614	0.610918	0.617036	0.590310	0.589988	0.605766	0.596750	0.615426	0.612850	0.626696	0.623154	0.621222	0.621866	0.599648	0.609630	0.605766	0.589666	0.600614	0.599970	0.614138	0.585802	0.603190	0.604478	0.563584	0.607054	0.611562	0.620256	0.568736	0.624120	0.618324	0.610274	0.599326	0.608342	0.607054	0.602224	0.583226	0.623798	0.620900	0.597394	0.615426	0.598038	0.614782	0.607698	0.594174	0.606088	0.618324	0.616392	0.609952	0.637001	0.617680	0.608664	0.644729	0.604156	0.607698	0.623476	0.643441	0.617036	0.625086	0.625408	0.618002	0.590310	0.613494	0.604478	0.590632	0.608986	0.588700	0.608664	0.608020	0.604478	0.599970	0.613494	0.579362	0.589344	0.607698	0.603190	0.599004	0.618002	0.605444	0.625730	0.595462	0.595784	0.617680	0.624764	0.592564	0.607376	0.608342	0.608664	0.615104	0.611240	0.611240	0.612528	0.619290	0.596106	0.620256	0.618646	0.610596	0.608986	0.604478
0.593530	0.608020	0.594496	0.611884	0.612850	0.594818	0.616714	0.615426	0.632492	0.615748	0.617680	0.614138	0.614138	0.611884	0.618646	0.634424	0.610596	0.597072	0.593208	0.595140	0.615104	0.599326	0.597072	0.618324	0.596428	0.599004	0.602868	0.613494	0.578718	0.597072	0.592886	0.601258	0.613816	0.601258	0.614460	0.624120	0.594818	0.604800	0.606732	0.602546	0.612850	0.615426	0.608020	0.627018	0.618968	0.605122	0.548771	0.603834	0.557465	0.586446	0.688199	0.599970	0.613816	0.559075	0.606088	0.611562	0.630560	0.605766	0.613494	0.608342	0.608664	0.597716	0.604478	0.625086	0.594496	0.590632	0.606410	0.609952	0.589666	0.595784	0.596428	0.618324	0.591598	0.595784	0.616070	0.592242	0.602868	0.605766	0.619934	0.613816	0.617680	0.590954	0.603512	0.623154	0.629916	0.623154	0.600614	0.667913	0.622510	0.607698	0.587734	0.623798	0.608342	0.599970	0.612528	0.607054	0.594496	0.611240	0.602224	0.612206	0.620578	0.602546	0.570346	0.588700	0.603512	0.587412	0.605444	0.586124	0.604800	0.620578	0.607376	0.613172	0.592886	0.594818	0.606410	0.602224	0.614460	0.612528	0.617358	0.603190	0.610274	0.616392	0.598038	0.614782	0.618002	0.618968	0.611884	0.614138
0.599326	0.616070	0.599004	0.600292	0.612528	0.591276	0.620578	0.619290	0.624442	0.606732	0.612528	0.597394	0.602868	0.605122	0.601258	0.622832	0.606410	0.606088	0.598682	0.621222	0.611562	0.597716	0.601258	0.598682	0.595140	0.585158	0.599326	0.616392	0.601258	0.615104	0.615748	0.615426	0.620578	0.609308	0.585158	0.607698	0.602224	0.606410	0.623154	0.622832	0.625730	0.618002	0.601902	0.607054	0.593208	0.599326	0.565194	0.619290	0.580006	0.615104	0.638288	0.587734	0.611240	0.499827	0.612850	0.590632	0.625730	0.595140	0.615426	0.618968	0.611562	0.607698	0.600614	0.631848	0.601580	0.594818	0.601902	0.609308	0.609630	0.604478	0.607054	0.622832	0.612206	0.603190	0.617680	0.625086	0.606732	0.604478	0.616392	0.564228	0.605122	0.579362	0.597394	0.611240	0.626696	0.605122	0.602224	0.619612	0.599970	0.600936	0.597716	0.600936	0.604800	0.594818	0.612850	0.612850	0.602868	0.609952	0.604800	0.575820	0.604800	0.601258	0.610596	0.608664	0.625730	0.599004	0.608664	0.610274	0.604800	0.613816	0.608986	0.616392	0.616714	0.624120	0.613172	0.613172	0.608664	0.598682	0.611562	0.588700	0.578074	0.613494	0.598360	0.603834	0.612528	0.612850	0.605122	0.608020
0.607698	0.615426	0.599326	0.604156	0.593530	0.577430	0.608664	0.618646	0.606088	0.609952	0.607054	0.618002	0.604156	0.608664	0.607376	0.608342	0.597072	0.626374	0.596428	0.629916	0.625730	0.604478	0.608020	0.595140	0.611240	0.614460	0.595140	0.625408	0.601902	0.611562	0.612528	0.624120	0.614460	0.615748	0.609308	0.596428	0.613494	0.598038	0.613172	0.609952	0.612206	0.610918	0.613172	0.619290	0.588700	0.602868	0.562940	0.608986	0.577108	0.595784	0.616392	0.624120	0.623154	0.504657	0.618968	0.611884	0.619290	0.608020	0.599970	0.630882	0.610274	0.627984	0.606732	0.633136	0.611884	0.615748	0.608986	0.608664	0.628628	0.603512	0.599970	0.613494	0.592564	0.591598	0.604156	0.612850	0.606732	0.605122	0.603834	0.577108	0.605444	0.563906	0.595140	0.611884	0.621866	0.604156	0.611562	0.612850	0.614782	0.599648	0.600614	0.605766	0.606732	0.602546	0.605122	0.592564	0.612850	0.637322	0.600936	0.622188	0.605122	0.607698	0.601902	0.621866	0.612528	0.599648	0.611884	0.622510	0.605766	0.609630	0.593530	0.607698	0.607698	0.605122	0.595140	0.612850	0.595462	0.608986	0.602546	0.608020	0.626696	0.647949	0.594174	0.609952	0.600936	0.606088	0.595462	0.597716
0.611240	0.610918	0.610274	0.600936	0.602868	0.596750	0.593852	0.611562	0.608664	0.615426	0.617680	0.621222	0.599326	0.605444	0.609952	0.602546	0.613494	0.611884	0.598682	0.614782	0.626696	0.610918	0.611240	0.580006	0.599970	0.614138	0.602224	0.605444	0.596750	0.602224	0.613172	0.602546	0.607698	0.613816	0.585158	0.586768	0.606088	0.604800	0.604478	0.646983	0.610918	0.613816	0.612206	0.607376	0.593530	0.594174	0.580972	0.604800	0.637001	0.600936	0.682081	0.614138	0.606088	0.532027	0.605766	0.608986	0.618646	0.583870	0.603834	0.626696	0.613172	0.629272	0.614460	0.606088	0.612528	0.605766	0.596106	0.603512	0.609308	0.597394	0.602546	0.600614	0.587090	0.607698	0.607698	0.603834	0.595784	0.608020	0.619290	0.597394	0.603190	0.596750	0.602868	0.600936	0.623476	0.595462	0.624442	0.564872	0.559720	0.646661	0.616714	0.597394	0.618324	0.600936	0.610596	0.617680	0.610918	0.621866	0.607698	0.607054	0.604478	0.608664	0.608342	0.607698	0.612528	0.606732	0.602224	0.600614	0.604800	0.601258	0.594496	0.597394	0.606410	0.607698	0.603190	0.596106	0.610274	0.607698	0.614460	0.611884	0.536857	0.618324	0.583870	0.630882	0.608020	0.615104	0.602868	0.609952
0.614138	0.602546	0.611562	0.600614	0.610274	0.611884	0.598682	0.611884	0.599326	0.607698	0.600614	0.627662	0.599970	0.600614	0.606088	0.598360	0.604800	0.605766	0.603190	0.605122	0.606732	0.609952	0.611562	0.601902	0.590310	0.607698	0.597072	0.618002	0.583226	0.596106	0.615426	0.619612	0.609308	0.613816	0.588056	0.595140	0.612206	0.604800	0.616392	0.644407	0.616714	0.608986	0.619612	0.606732	0.614460	0.585480	0.564228	0.608020	0.623154	0.593530	0.644729	0.605122	0.600292	0.551991	0.609952	0.608986	0.620900	0.598360	0.592564	0.594496	0.602868	0.623476	0.611884	0.591276	0.610274	0.615104	0.594496	0.611884	0.608986	0.590632	0.615426	0.601258	0.595462	0.611562	0.619612	0.616714	0.603834	0.609630	0.627018	0.605122	0.601580	0.616392	0.587090	0.607698	0.635713	0.588056	0.596428	0.620578	0.613172	0.613172	0.603190	0.587734	0.603190	0.598038	0.605444	0.606732	0.595140	0.622188	0.597072	0.596106	0.600292	0.607698	0.617036	0.611562	0.617036	0.611884	0.601580	0.612850	0.604800	0.608664	0.596428	0.612850	0.614460	0.614460	0.612528	0.601902	0.614782	0.612206	0.600292	0.612850	0.605122	0.610274	0.610918	0.627340	0.599004	0.622188	0.608986	0.600614
0.614782	0.613172	0.601258	0.622510	0.598682	0.599326	0.592886	0.611884	0.624120	0.615104	0.612206	0.609952	0.641187	0.602224	0.606732	0.625086	0.597716	0.604800	0.583870	0.606088	0.613816	0.591276	0.608020	0.613816	0.570990	0.602868	0.608986	0.620900	0.581294	0.605766	0.610918	0.621866	0.608020	0.614782	0.603834	0.591276	0.623476	0.618324	0.627984	0.661795	0.622832	0.609630	0.603834	0.617036	0.614460	0.585480	0.573566	0.602868	0.599648	0.654067	0.590310	0.600936	0.605444	0.596106	0.548449	0.611240	0.623798	0.617680	0.604478	0.600292	0.603190	0.603512	0.603512	0.587090	0.604156	0.612528	0.566804	0.571312	0.614460	0.595140	0.611884	0.590954	0.604478	0.609952	0.611884	0.543619	0.605766	0.612206	0.619612	0.598682	0.619934	0.623476	0.579684	0.626052	0.609308	0.579362	0.602224	0.612850	0.618002	0.724586	0.602868	0.601258	0.614782	0.602546	0.600614	0.616070	0.577108	0.624120	0.601902	0.600292	0.607376	0.603512	0.598360	0.622188	0.617358	0.590310	0.604156	0.608986	0.607376	0.625408	0.607376	0.609308	0.605444	0.606410	0.615426	0.597072	0.606088	0.622832	0.614782	0.602224	0.609308	0.596106	0.614782	0.632170	0.598682	0.611240	0.613816	0.611884
0.604478	0.599970	0.613494	0.608986	0.593208	0.606410	0.581938	0.591276	0.611562	0.608664	0.617036	0.605766	0.616392	0.600936	0.610918	0.598038	0.599326	0.606088	0.613494	0.614138	0.615104	0.595462	0.617358	0.606732	0.579040	0.593530	0.602224	0.634746	0.614460	0.611884	0.608986	0.621222	0.610596	0.616714	0.601902	0.606088	0.614138	0.604478	0.614138	0.627984	0.624442	0.597072	0.606088	0.607698	0.595462	0.584192	0.583226	0.600936	0.597072	0.614138	0.583548	0.603834	0.626696	0.604800	0.568414	0.597394	0.627662	0.613172	0.607698	0.616714	0.604156	0.630560	0.613816	0.594496	0.620256	0.618002	0.590632	0.586124	0.601258	0.597716	0.618646	0.600614	0.601580	0.613816	0.602868	0.579362	0.611884	0.607376	0.611240	0.593530	0.597072	0.610596	0.570990	0.600614	0.623476	0.481795	0.610274	0.606088	0.601258	0.690453	0.612528	0.600614	0.589022	0.612206	0.608342	0.600936	0.598360	0.591276	0.609952	0.612850	0.602224	0.618324	0.614460	0.614138	0.618002	0.600936	0.607376	0.619290	0.596106	0.609952	0.620900	0.609630	0.607376	0.613172	0.606732	0.599326	0.594496	0.601258	0.607698	0.605122	0.585802	0.630560	0.624120	0.592886	0.608664	0.599326	0.605122	0.613494
0.600936	0.595784	0.593208	0.602546	0.592242	0.601580	0.606088	0.608020	0.618968	0.609630	0.600292	0.611240	0.614460	0.597394	0.611240	0.624120	0.640865	0.607376	0.619612	0.622188	0.618968	0.594174	0.608342	0.616392	0.610596	0.610596	0.606088	0.607376	0.613816	0.605766	0.596106	0.612850	0.610274	0.618002	0.621866	0.605122	0.606410	0.612206	0.623476	0.597072	0.619290	0.594818	0.614782	0.610274	0.602224	0.580006	0.591276	0.600292	0.595140	0.627984	0.597716	0.605122	0.617680	0.627018	0.538789	0.618002	0.616714	0.618002	0.603834	0.607698	0.609308	0.605766	0.610274	0.598360	0.612850	0.616714	0.583226	0.611562	0.608986	0.620256	0.614460	0.587734	0.602546	0.595784	0.610596	0.539111	0.598038	0.612206	0.607054	0.596106	0.614460	0.605444	0.538789	0.612850	0.606088	0.473744	0.619290	0.611884	0.622510	0.682081	0.600614	0.623476	0.612850	0.600614	0.603190	0.604478	0.601258	0.550381	0.604478	0.619934	0.618002	0.601580	0.608020	0.608986	0.596750	0.594818	0.606088	0.611884	0.608020	0.611240	0.604156	0.646983	0.598682	0.599970	0.602546	0.594818	0.598360	0.606088	0.612850	0.618968	0.596106	0.596750	0.579684	0.624120	0.602868	0.600936	0.600936	0.617036
0.606088	0.606732	0.620900	0.613816	0.593852	0.610596	0.603190	0.614138	0.612850	0.596428	0.604156	0.608342	0.607376	0.608020	0.595140	0.605122	0.606410	0.597072	0.612528	0.594818	0.608664	0.597394	0.615748	0.609952	0.604156	0.615104	0.604478	0.613816	0.612850	0.594818	0.607054	0.616714	0.612850	0.619934	0.559398	0.603834	0.619290	0.615426	0.615748	0.635713	0.615426	0.604800	0.606410	0.599648	0.609308	0.608020	0.587090	0.595784	0.611240	0.614138	0.610918	0.601258	0.594818	0.619290	0.553601	0.589666	0.627984	0.612528	0.605444	0.600614	0.603190	0.619612	0.620578	0.591920	0.604478	0.626374	0.578718	0.612528	0.608020	0.615104	0.639899	0.604156	0.621866	0.611562	0.612850	0.560364	0.595784	0.600936	0.602546	0.592886	0.607376	0.610596	0.555211	0.620578	0.614782	0.460864	0.668235	0.601258	0.602868	0.632492	0.600614	0.608664	0.598360	0.606410	0.611884	0.614782	0.593530	0.566804	0.599004	0.608664	0.603834	0.600614	0.613172	0.614460	0.600292	0.619290	0.616070	0.616714	0.606410	0.621222	0.608664	0.638288	0.586768	0.610274	0.618324	0.609630	0.600292	0.621544	0.608342	0.608986	0.594496	0.545551	0.609308	0.624764	0.594174	0.605444	0.603190	0.594496
0.600936	0.618324	0.602868	0.615426	0.609952	0.608664	0.604156	0.611884	0.609630	0.601580	0.603834	0.610596	0.613816	0.616070	0.598682	0.605444	0.609952	0.597716	0.601580	0.609630	0.601902	0.603834	0.618968	0.607054	0.611562	0.610596	0.593852	0.611240	0.609630	0.602546	0.600292	0.605122	0.618002	0.628628	0.565516	0.608986	0.612528	0.620900	0.635390	0.617680	0.607054	0.608020	0.605122	0.605444	0.617036	0.619290	0.615426	0.596428	0.609308	0.605444	0.627984	0.603512	0.598038	0.613494	0.610274	0.593208	0.627018	0.591920	0.606732	0.599648	0.614138	0.605766	0.617358	0.608664	0.609952	0.612206	0.566160	0.611240	0.607376	0.609630	0.616070	0.665015	0.608986	0.615104	0.612206	0.622832	0.591920	0.614138	0.614460	0.600614	0.608342	0.605444	0.562618	0.588700	0.608664	0.510131	0.595784	0.612206	0.612850	0.621866	0.611884	0.609308	0.606088	0.604478	0.595784	0.602546	0.590632	0.558432	0.596750	0.604800	0.604156	0.612850	0.610596	0.609308	0.609308	0.608664	0.605766	0.606410	0.609952	0.619612	0.613172	0.624442	0.581294	0.610918	0.608664	0.609308	0.604156	0.605122	0.618324	0.612850	0.599326	0.557787	0.592886	0.610596	0.605122	0.585158	0.615104	0.603190
0.605444	0.599970	0.607698	0.593852	0.603190	0.606732	0.599326	0.603512	0.612206	0.600614	0.605122	0.603190	0.608986	0.608986	0.616392	0.604156	0.611884	0.600292	0.613172	0.618968	0.616070	0.597072	0.624442	0.583870	0.599970	0.605766	0.592886	0.610274	0.623476	0.620256	0.610918	0.620900	0.617680	0.615748	0.602224	0.581294	0.605766	0.611240	0.620578	0.619934	0.603834	0.599648	0.601580	0.605122	0.604156	0.605122	0.595140	0.577752	0.623798	0.586446	0.637322	0.579362	0.589988	0.632170	0.605766	0.598360	0.607376	0.606410	0.595462	0.617358	0.612206	0.600614	0.623476	0.599648	0.620900	0.619290	0.569058	0.611562	0.610274	0.607376	0.614138	0.616392	0.606410	0.604800	0.608986	0.641831	0.596750	0.604156	0.607054	0.579684	0.614138	0.612850	0.609952	0.575176	0.603512	0.532027	0.586446	0.603512	0.600292	0.604800	0.651491	0.603190	0.616070	0.590632	0.597716	0.612206	0.615426	0.574210	0.606732	0.608342	0.599970	0.613172	0.604156	0.606732	0.618002	0.602868	0.618002	0.616392	0.605444	0.617358	0.608664	0.606410	0.566482	0.594818	0.598038	0.609630	0.587412	0.606732	0.613172	0.601580	0.595462	0.601258	0.583870	0.614460	0.606088	0.612528	0.608342	0.595784
0.609952	0.608664	0.607054	0.589988	0.599648	0.598360	0.597394	0.610918	0.599326	0.605444	0.613494	0.609308	0.619612	0.532671	0.601258	0.609308	0.613816	0.607376	0.616714	0.618646	0.610596	0.609308	0.618324	0.593530	0.606732	0.607376	0.605766	0.612206	0.610274	0.619290	0.615426	0.604478	0.613494	0.614460	0.604156	0.572600	0.601580	0.609952	0.646339	0.620900	0.602546	0.607054	0.594818	0.602546	0.599648	0.604156	0.603512	0.620900	0.604800	0.607698	0.608020	0.584836	0.596106	0.652457	0.599648	0.610918	0.610274	0.615104	0.629594	0.613816	0.611884	0.607054	0.603190	0.596750	0.600292	0.613172	0.584192	0.607698	0.613172	0.614782	0.614138	0.607376	0.617358	0.601580	0.600292	0.598360	0.591598	0.603190	0.613172	0.538145	0.605122	0.621866	0.612206	0.547483	0.546517	0.576786	0.595784	0.629594	0.623798	0.611884	0.685945	0.608986	0.616070	0.569058	0.611884	0.607054	0.608020	0.593852	0.600614	0.609952	0.600614	0.613494	0.618324	0.612528	0.628306	0.611562	0.601580	0.614460	0.606410	0.591598	0.614138	0.623476	0.568736	0.608986	0.604478	0.606732	0.600614	0.588056	0.611240	0.602868	0.608664	0.593530	0.609308	0.608342	0.628306	0.606088	0.610274	0.604156
0.620900	0.595140	0.606732	0.633136	0.600936	0.608664	0.601580	0.602224	0.616392	0.609630	0.614138	0.606732	0.634424	0.543619	0.608342	0.593530	0.593852	0.602868	0.603190	0.606410	0.611562	0.604800	0.611240	0.606410	0.600292	0.593208	0.602546	0.596428	0.603512	0.594174	0.603512	0.594174	0.613816	0.591920	0.603834	0.607054	0.596750	0.610918	0.620578	0.626052	0.623476	0.617680	0.619612	0.620256	0.599648	0.605122	0.602868	0.587734	0.610918	0.623154	0.608020	0.618002	0.629272	0.615426	0.604156	0.598360	0.599326	0.611240	0.603190	0.616392	0.607376	0.606410	0.599970	0.606410	0.581938	0.610596	0.573888	0.597716	0.614460	0.610596	0.612528	0.618002	0.619934	0.600292	0.611562	0.616714	0.602868	0.614138	0.619934	0.579684	0.611884	0.646661	0.610274	0.592886	0.595462	0.551669	0.591920	0.611562	0.612528	0.618324	0.706553	0.608020	0.603834	0.594174	0.602224	0.606410	0.603190	0.596428	0.599970	0.602868	0.586124	0.599970	0.592564	0.599970	0.590632	0.603834	0.604800	0.606088	0.622188	0.601902	0.619612	0.636679	0.586124	0.598360	0.605444	0.610918	0.593530	0.622188	0.622832	0.615426	0.623798	0.600936	0.616392	0.610596	0.608342	0.596428	0.603834	0.588056
0.613172	0.576464	0.611240	0.615426	0.601580	0.597716	0.602546	0.608020	0.598360	0.595784	0.612850	0.601902	0.616714	0.546195	0.600936	0.596750	0.609308	0.601580	0.618002	0.604478	0.606410	0.618002	0.606088	0.609308	0.611884	0.608020	0.613816	0.608986	0.610596	0.576786	0.608664	0.607054	0.620578	0.612528	0.604156	0.613816	0.599326	0.605444	0.618646	0.623476	0.599970	0.604156	0.600292	0.612528	0.622188	0.589022	0.612206	0.624442	0.590310	0.608986	0.599004	0.598360	0.624120	0.607698	0.605766	0.607376	0.604156	0.609308	0.621866	0.610918	0.609630	0.610918	0.611562	0.614138	0.590632	0.608020	0.618324	0.598682	0.596106	0.619934	0.614460	0.620256	0.648915	0.600936	0.600936	0.606732	0.601258	0.593852	0.608020	0.598682	0.622188	0.634746	0.596106	0.565516	0.594496	0.545873	0.613816	0.600936	0.606410	0.610596	0.674997	0.604800	0.606088	0.598360	0.604156	0.631848	0.592242	0.597716	0.605122	0.602224	0.614460	0.603190	0.608342	0.618646	0.591598	0.608020	0.620256	0.615426	0.608342	0.591276	0.608986	0.617358	0.596106	0.594818	0.595462	0.606732	0.605444	0.615426	0.618646	0.609630	0.613172	0.594496	0.582904	0.599326	0.607698	0.598038	0.598038	0.584836
0.617358	0.618968	0.587090	0.613172	0.575820	0.600936	0.595140	0.593530	0.593530	0.585480	0.607376	0.611884	0.640221	0.550381	0.604478	0.613172	0.601902	0.596106	0.597716	0.612850	0.616070	0.621544	0.618324	0.622832	0.623476	0.602224	0.603190	0.600292	0.591920	0.601580	0.609630	0.613816	0.619934	0.614138	0.607698	0.615104	0.599326	0.591598	0.598360	0.608020	0.608342	0.605766	0.596106	0.618002	0.591920	0.596750	0.615426	0.614782	0.586768	0.589344	0.607376	0.603512	0.615426	0.612850	0.606732	0.624120	0.606410	0.625086	0.631204	0.606732	0.615748	0.610274	0.599970	0.616714	0.607698	0.609952	0.628950	0.598360	0.604800	0.608664	0.600936	0.606410	0.608342	0.589344	0.589988	0.615104	0.612850	0.611562	0.622188	0.589988	0.626374	0.622510	0.596106	0.507555	0.542975	0.576464	0.595784	0.574210	0.581616	0.616392	0.719756	0.784478	0.614138	0.612528	0.624120	0.622832	0.586446	0.587734	0.593208	0.595784	0.600936	0.597072	0.608020	0.620900	0.600292	0.622832	0.614138	0.597072	0.604800	0.621222	0.578718	0.596428	0.608342	0.604800	0.607054	0.607376	0.607376	0.600292	0.611884	0.599648	0.602546	0.583548	0.594496	0.605444	0.601258	0.607698	0.614782	0.572278
0.611562	0.616714	0.591920	0.618968	0.616392	0.600936	0.608342	0.610596	0.608020	0.610918	0.602224	0.609308	0.625730	0.583870	0.601258	0.618646	0.602224	0.615426	0.599970	0.602224	0.602224	0.613816	0.602868	0.610596	0.604156	0.601902	0.612528	0.577752	0.601902	0.609952	0.602224	0.611884	0.616070	0.613816	0.607698	0.608986	0.611884	0.611562	0.618002	0.618324	0.627662	0.621866	0.599970	0.639577	0.592886	0.604156	0.612528	0.622832	0.591598	0.618002	0.607054	0.611884	0.622188	0.604800	0.589666	0.602546	0.603190	0.605444	0.607376	0.606732	0.558109	0.609308	0.598360	0.607054	0.591598	0.598682	0.606088	0.574532	0.610596	0.613172	0.608664	0.624764	0.622510	0.613494	0.577752	0.608986	0.599970	0.624442	0.614460	0.595784	0.640221	0.632492	0.626696	0.579362	0.593208	0.569380	0.597394	0.590632	0.614460	0.622510	0.634424	0.618968	0.606088	0.602546	0.615104	0.609952	0.589022	0.582904	0.594818	0.605122	0.574854	0.603834	0.610274	0.612206	0.589344	0.607054	0.610274	0.606732	0.630238	0.609952	0.600292	0.598038	0.610274	0.592564	0.609630	0.608986	0.620578	0.617358	0.613172	0.632170	0.618324	0.604800	0.607698	0.599648	0.605766	0.616070	0.612528	0.578396
0.622510	0.607054	0.611562	0.620578	0.608664	0.595140	0.611562	0.637967	0.586768	0.606732	0.617680	0.616392	0.613494	0.573244	0.609308	0.604800	0.599326	0.602224	0.594496	0.597716	0.604800	0.605444	0.619934	0.607376	0.607376	0.604156	0.612206	0.578396	0.589666	0.593208	0.606088	0.605122	0.620578	0.617680	0.611562	0.619934	0.611562	0.615104	0.640865	0.616070	0.606732	0.617358	0.611240	0.625408	0.580650	0.603190	0.616714	0.613494	0.514961	0.609952	0.606410	0.607054	0.626696	0.617358	0.600614	0.594818	0.595462	0.594496	0.614460	0.600614	0.578718	0.611562	0.596428	0.624442	0.587734	0.591920	0.601580	0.608986	0.577430	0.611240	0.606732	0.636679	0.627018	0.628950	0.587734	0.610596	0.603834	0.611562	0.611240	0.605766	0.624120	0.640865	0.551025	0.622188	0.600614	0.561974	0.591598	0.591598	0.602546	0.614460	0.666947	0.610596	0.620256	0.606088	0.605444	0.607698	0.594496	0.561330	0.590632	0.598038	0.574210	0.605766	0.611240	0.626052	0.600936	0.616392	0.614460	0.601902	0.608020	0.609308	0.602546	0.591920	0.633780	0.622510	0.606732	0.618968	0.598682	0.606088	0.623798	0.599648	0.606732	0.589344	0.595462	0.600936	0.608342	0.605122	0.621222	0.586446
0.604800	0.598360	0.602868	0.603190	0.589988	0.620578	0.600292	0.637645	0.616714	0.624442	0.621544	0.612850	0.597716	0.620900	0.602224	0.607054	0.615426	0.628950	0.592242	0.633780	0.596106	0.605122	0.628306	0.607698	0.602224	0.606732	0.616070	0.613816	0.591276	0.583226	0.595462	0.613816	0.599648	0.620900	0.590310	0.602868	0.624764	0.591598	0.603834	0.607054	0.599970	0.607054	0.612850	0.606410	0.597394	0.609630	0.605444	0.622510	0.554567	0.614782	0.608020	0.613172	0.632170	0.646339	0.617680	0.599648	0.610596	0.608342	0.614138	0.613172	0.599004	0.630882	0.616070	0.603834	0.589666	0.605766	0.599648	0.607054	0.570346	0.583226	0.605444	0.615426	0.604156	0.626374	0.572600	0.611884	0.598038	0.609952	0.602224	0.595140	0.607376	0.639899	0.551025	0.617036	0.610274	0.574854	0.584514	0.618968	0.601580	0.618646	0.684013	0.627018	0.610596	0.615748	0.610596	0.596106	0.610596	0.626374	0.602546	0.608986	0.570346	0.608342	0.608664	0.589988	0.601580	0.621866	0.607698	0.623476	0.604800	0.595784	0.600936	0.591598	0.603512	0.612528	0.598038	0.611240	0.584192	0.615104	0.612528	0.605766	0.604478	0.589022	0.597394	0.606088	0.612850	0.620578	0.613494	0.573566
0.606088	0.610596	0.607698	0.607054	0.592564	0.594174	0.601258	0.599970	0.598360	0.610274	0.613816	0.613172	0.609630	0.608342	0.597716	0.610596	0.601580	0.606088	0.608664	0.603834	0.613172	0.617036	0.623476	0.616714	0.613494	0.610918	0.616392	0.618002	0.591276	0.593208	0.609308	0.610274	0.612206	0.613494	0.603190	0.618002	0.622832	0.600936	0.618646	0.608020	0.613172	0.603512	0.593852	0.610274	0.593208	0.601902	0.616070	0.605766	0.537179	0.604478	0.593208	0.602546	0.623154	0.627662	0.619612	0.613172	0.606410	0.600292	0.618002	0.610274	0.609308	0.614138	0.614782	0.615426	0.610918	0.611884	0.608342	0.606410	0.642475	0.595462	0.567126	0.609630	0.646661	0.617036	0.601258	0.597716	0.598360	0.611240	0.602224	0.561330	0.609308	0.605766	0.586768	0.561652	0.608342	0.599970	0.580328	0.593530	0.597394	0.602868	0.649237	0.629272	0.607054	0.610596	0.617680	0.607698	0.599326	0.618002	0.599004	0.603190	0.610274	0.606410	0.610918	0.590310	0.611562	0.624120	0.608020	0.582260	0.606088	0.639577	0.598038	0.599970	0.603190	0.606410	0.603512	0.600292	0.588056	0.617036	0.605444	0.648915	0.601902	0.592242	0.601580	0.605766	0.594818	0.613172	0.618646	0.615104
0.608342	0.613172	0.596428	0.608342	0.595784	0.615748	0.615104	0.615426	0.609308	0.619612	0.606088	0.576142	0.608020	0.602868	0.606410	0.612850	0.612528	0.637322	0.609630	0.614460	0.613494	0.610274	0.617680	0.605444	0.605766	0.601580	0.616714	0.615748	0.588700	0.592564	0.599004	0.609952	0.603190	0.614782	0.605122	0.614138	0.630560	0.609630	0.608986	0.617680	0.630560	0.608342	0.602224	0.616392	0.523333	0.526875	0.642797	0.788342	0.585480	0.589988	0.617036	0.624120	0.615426	0.619934	0.618324	0.611884	0.604156	0.616392	0.611884	0.621866	0.605122	0.609308	0.609630	0.610918	0.592564	0.587412	0.596750	0.605444	0.618324	0.590954	0.614782	0.616714	0.622510	0.613172	0.594174	0.596106	0.603512	0.605444	0.614460	0.589022	0.627662	0.612528	0.630560	0.551669	0.620578	0.608020	0.579362	0.590632	0.607054	0.620256	0.690775	0.649237	0.616070	0.613816	0.609308	0.578074	0.597072	0.605766	0.607376	0.591920	0.609952	0.598038	0.596750	0.635713	0.607698	0.591920	0.612206	0.604478	0.598360	0.624120	0.616714	0.596106	0.606410	0.603190	0.584514	0.614138	0.584514	0.614460	0.619290	0.621866	0.620578	0.618002	0.609630	0.614138	0.605444	0.605766	0.619612	0.617680
0.599326	0.601580	0.603190	0.606088	0.590632	0.605766	0.611240	0.627662	0.610918	0.611884	0.613172	0.608020	0.609630	0.607054	0.597716	0.607376	0.617036	0.607376	0.605122	0.614782	0.609630	0.605444	0.617036	0.591920	0.609308	0.614782	0.613816	0.616070	0.598360	0.587090	0.597716	0.596750	0.599326	0.612528	0.611884	0.613172	0.601902	0.612528	0.611240	0.612850	0.617036	0.597072	0.562296	0.614460	0.610918	0.603834	0.607698	0.631204	0.614460	0.593852	0.612528	0.625086	0.625086	0.616070	0.610596	0.615104	0.587090	0.615426	0.615426	0.616070	0.608664	0.600936	0.603190	0.606732	0.651491	0.588378	0.600936	0.603190	0.613816	0.609952	0.594818	0.620256	0.627340	0.605122	0.610274	0.594496	0.597394	0.601902	0.612206	0.609308	0.645051	0.605444	0.637645	0.581294	0.616070	0.612850	0.567126	0.587412	0.620900	0.648271	0.664693	0.633136	0.617358	0.611562	0.617358	0.576142	0.599970	0.589022	0.599970	0.592886	0.630560	0.590632	0.599648	0.608342	0.594496	0.599004	0.608342	0.604478	0.615104	0.599326	0.606732	0.612850	0.595140	0.614460	0.595140	0.598682	0.592242	0.611562	0.598360	0.630560	0.610274	0.611562	0.616070	0.613172	0.612850	0.620256	0.612206	0.608986
0.608986	0.613172	0.606732	0.606410	0.606410	0.602868	0.611884	0.619934	0.614138	0.589344	0.604156	0.606088	0.601580	0.602546	0.606088	0.600936	0.608342	0.597394	0.613494	0.604800	0.587090	0.605122	0.607054	0.608664	0.599970	0.596750	0.592242	0.615104	0.608020	0.592564	0.601902	0.607376	0.609308	0.622832	0.613816	0.610918	0.598360	0.613816	0.613816	0.625086	0.617358	0.625086	0.599326	0.618002	0.615426	0.624764	0.611240	0.631848	0.594496	0.566160	0.618002	0.613816	0.651813	0.611240	0.610918	0.617358	0.572278	0.601580	0.609952	0.586446	0.596428	0.609308	0.604156	0.621544	0.601580	0.619290	0.602546	0.611240	0.604156	0.607054	0.606088	0.605444	0.617680	0.608664	0.610274	0.618324	0.608664	0.598360	0.616714	0.607376	0.606410	0.619612	0.627340	0.585158	0.610596	0.629594	0.587734	0.613172	0.603834	0.627340	0.603834	0.611884	0.608342	0.601580	0.593530	0.580972	0.593852	0.602546	0.607698	0.607054	0.601258	0.597394	0.603512	0.605444	0.609630	0.607698	0.601580	0.609308	0.611240	0.593852	0.612528	0.608342	0.593852	0.624120	0.609952	0.614782	0.593208	0.602546	0.614460	0.636356	0.603512	0.615748	0.625408	0.611240	0.612850	0.614138	0.604478	0.600936
0.603512	0.597072	0.606088	0.614138	0.612850	0.611562	0.615104	0.599326	0.601902	0.595784	0.597394	0.593852	0.602868	0.607376	0.612850	0.606088	0.611240	0.595462	0.596428	0.606410	0.605766	0.603512	0.618968	0.621866	0.601258	0.615748	0.610596	0.606732	0.616714	0.595784	0.599326	0.602546	0.608020	0.621544	0.626374	0.600292	0.595462	0.617680	0.605444	0.624120	0.606088	0.611884	0.572922	0.603512	0.614782	0.608664	0.608342	0.614782	0.604800	0.562940	0.582260	0.618324	0.597716	0.608986	0.594174	0.582260	0.609308	0.612528	0.620578	0.617036	0.610274	0.612206	0.611240	0.633136	0.601580	0.621866	0.645695	0.614782	0.613494	0.615748	0.608342	0.618324	0.611562	0.600292	0.612850	0.604156	0.606410	0.606088	0.597716	0.610918	0.612850	0.608986	0.621222	0.573244	0.601580	0.638933	0.598682	0.590632	0.597394	0.600292	0.603512	0.633780	0.589666	0.624120	0.606732	0.580972	0.596106	0.596106	0.592242	0.608986	0.610274	0.624442	0.636356	0.613494	0.614782	0.616714	0.612206	0.607376	0.604156	0.610596	0.596750	0.614138	0.589344	0.618968	0.610918	0.597716	0.587090	0.588700	0.596428	0.646983	0.586124	0.606088	0.606410	0.600936	0.600292	0.625408	0.593852	0.613816
